%OpenBCI Raw EXG Data
%Number of channels = 8
%Sample Rate = 250 Hz
%Board = OpenBCI_GUI$BoardCytonSerial
Sample Index, EXG Channel 0, EXG Channel 1, EXG Channel 2, EXG Channel 3, EXG Channel 4, EXG Channel 5, EXG Channel 6, EXG Channel 7, Accel Channel 0, Accel Channel 1, Accel Channel 2, Other, Other, Other, Other, Other, Other, Other, Analog Channel 0, Analog Channel 1, Analog Channel 2, Timestamp, Other, Timestamp (Formatted)
199.0, 5886.175440093928, 0.0, 0.0, 0.0, 0.0, 0.0, 0.0, 0.0, 0.0, 0.0, 0.0, 192.0, 0.0, 0.0, 0.0, 0.0, 0.0, 0.0, 0.0, 0.0, 0.0, 1.7151627406255257E9, 0.0, 2024-05-08 13:05:40.625
200.0, 3615.7075900682917, 0.0, 0.0, 0.0, 0.0, 0.0, 0.0, 0.0, 0.0, 0.0, 0.0, 192.0, 0.0, 0.0, 0.0, 0.0, 0.0, 0.0, 0.0, 0.0, 0.0, 1.7151627406255624E9, 0.0, 2024-05-08 13:05:40.625
201.0, 2747.409373212978, 0.0, 0.0, 0.0, 0.0, 0.0, 0.0, 0.0, 0.0, 0.0, 0.0, 192.0, 0.0, 0.0, 0.0, 0.0, 0.0, 0.0, 0.0, 0.0, 0.0, 1.715162740625581E9, 0.0, 2024-05-08 13:05:40.625
202.0, 4411.027361277028, 0.0, 0.0, 0.0, 0.0, 0.0, 0.0, 0.0, 0.002, -0.044, 0.992, 192.0, 0.0, 16.0, 254.0, 160.0, 31.0, 0.0, 0.0, 0.0, 0.0, 1.715162740625599E9, 0.0, 2024-05-08 13:05:40.625
203.0, 6250.687688671075, 0.0, 0.0, 0.0, 0.0, 0.0, 0.0, 0.0, 0.002, -0.044, 0.992, 192.0, 0.0, 0.0, 0.0, 0.0, 0.0, 0.0, 0.0, 0.0, 0.0, 1.7151627406256208E9, 0.0, 2024-05-08 13:05:40.625
204.0, 5754.94834839682, 0.0, 0.0, 0.0, 0.0, 0.0, 0.0, 0.0, 0.002, -0.044, 0.992, 192.0, 0.0, 0.0, 0.0, 0.0, 0.0, 0.0, 0.0, 0.0, 0.0, 1.7151627406256385E9, 0.0, 2024-05-08 13:05:40.625
205.0, 3493.0188647531113, 0.0, 0.0, 0.0, 0.0, 0.0, 0.0, 0.0, 0.002, -0.044, 0.992, 192.0, 0.0, 0.0, 0.0, 0.0, 0.0, 0.0, 0.0, 0.0, 0.0, 1.7151627406256564E9, 0.0, 2024-05-08 13:05:40.625
206.0, 2616.5175576827, 0.0, 0.0, 0.0, 0.0, 0.0, 0.0, 0.0, 0.002, -0.044, 0.992, 192.0, 0.0, 0.0, 0.0, 0.0, 0.0, 0.0, 0.0, 0.0, 0.0, 1.7151627406256747E9, 0.0, 2024-05-08 13:05:40.625
207.0, 4263.9528827611075, 0.0, 0.0, 0.0, 0.0, 0.0, 0.0, 0.0, 0.002, -0.044, 0.992, 192.0, 0.0, 0.0, 0.0, 0.0, 0.0, 0.0, 0.0, 0.0, 0.0, 1.7151627406257308E9, 0.0, 2024-05-08 13:05:40.625
208.0, 6090.000997781873, 0.0, 0.0, 0.0, 0.0, 0.0, 0.0, 0.0, 0.002, -0.044, 0.992, 192.0, 0.0, 0.0, 0.0, 0.0, 0.0, 0.0, 0.0, 0.0, 0.0, 1.7151627406257486E9, 0.0, 2024-05-08 13:05:40.625
209.0, 5626.7610939456345, 0.0, 0.0, 0.0, 0.0, 0.0, 0.0, 0.0, 0.002, -0.044, 0.992, 192.0, 0.0, 0.0, 0.0, 0.0, 0.0, 0.0, 0.0, 0.0, 0.0, 1.7151627406257665E9, 0.0, 2024-05-08 13:05:40.625
210.0, 3388.323293724453, 0.0, 0.0, 0.0, 0.0, 0.0, 0.0, 0.0, 0.002, -0.044, 0.992, 192.0, 0.0, 0.0, 0.0, 0.0, 0.0, 0.0, 0.0, 0.0, 0.0, 1.7151627406257863E9, 0.0, 2024-05-08 13:05:40.625
211.0, 2474.271055969126, 0.0, 0.0, 0.0, 0.0, 0.0, 0.0, 0.0, 0.002, -0.044, 0.992, 192.0, 0.0, 0.0, 0.0, 0.0, 0.0, 0.0, 0.0, 0.0, 0.0, 1.715162740625804E9, 0.0, 2024-05-08 13:05:40.625
212.0, 4116.476072844991, 0.0, 0.0, 0.0, 0.0, 0.0, 0.0, 0.0, -0.004, -0.046, 0.99, 192.0, 255.0, 224.0, 254.0, 144.0, 30.0, 240.0, 0.0, 0.0, 0.0, 1.715162740625822E9, 0.0, 2024-05-08 13:05:40.625
213.0, 5936.802141285199, 0.0, 0.0, 0.0, 0.0, 0.0, 0.0, 0.0, -0.004, -0.046, 0.99, 192.0, 0.0, 0.0, 0.0, 0.0, 0.0, 0.0, 0.0, 0.0, 0.0, 1.715162740625841E9, 0.0, 2024-05-08 13:05:40.625
214.0, 5519.651534515802, 0.0, 0.0, 0.0, 0.0, 0.0, 0.0, 0.0, -0.004, -0.046, 0.99, 192.0, 0.0, 0.0, 0.0, 0.0, 0.0, 0.0, 0.0, 0.0, 0.0, 1.715162740625867E9, 0.0, 2024-05-08 13:05:40.625
215.0, 3288.008664609035, 0.0, 0.0, 0.0, 0.0, 0.0, 0.0, 0.0, -0.004, -0.046, 0.99, 192.0, 0.0, 0.0, 0.0, 0.0, 0.0, 0.0, 0.0, 0.0, 0.0, 1.7151627406258905E9, 0.0, 2024-05-08 13:05:40.625
216.0, 2397.1798893427717, 0.0, 0.0, 0.0, 0.0, 0.0, 0.0, 0.0, -0.004, -0.046, 0.99, 192.0, 0.0, 0.0, 0.0, 0.0, 0.0, 0.0, 0.0, 0.0, 0.0, 1.7151627406259184E9, 0.0, 2024-05-08 13:05:40.625
217.0, 4035.093371283218, 0.0, 0.0, 0.0, 0.0, 0.0, 0.0, 0.0, -0.004, -0.046, 0.99, 192.0, 0.0, 0.0, 0.0, 0.0, 0.0, 0.0, 0.0, 0.0, 0.0, 1.7151627406259425E9, 0.0, 2024-05-08 13:05:40.625
218.0, 5882.800326681177, 0.0, 0.0, 0.0, 0.0, 0.0, 0.0, 0.0, -0.004, -0.046, 0.99, 192.0, 0.0, 0.0, 0.0, 0.0, 0.0, 0.0, 0.0, 0.0, 0.0, 1.7151627406259627E9, 0.0, 2024-05-08 13:05:40.625
219.0, 5509.883822188834, 0.0, 0.0, 0.0, 0.0, 0.0, 0.0, 0.0, -0.004, -0.046, 0.99, 192.0, 0.0, 0.0, 0.0, 0.0, 0.0, 0.0, 0.0, 0.0, 0.0, 1.7151627406259801E9, 0.0, 2024-05-08 13:05:40.625
220.0, 3261.030109051479, 0.0, 0.0, 0.0, 0.0, 0.0, 0.0, 0.0, -0.004, -0.046, 0.99, 192.0, 0.0, 0.0, 0.0, 0.0, 0.0, 0.0, 0.0, 0.0, 0.0, 1.7151627406259975E9, 0.0, 2024-05-08 13:05:40.625
221.0, 2298.474585828136, 0.0, 0.0, 0.0, 0.0, 0.0, 0.0, 0.0, -0.004, -0.046, 0.99, 192.0, 0.0, 0.0, 0.0, 0.0, 0.0, 0.0, 0.0, 0.0, 0.0, 1.715162740626021E9, 0.0, 2024-05-08 13:05:40.626
222.0, 3910.4823959448813, 0.0, 0.0, 0.0, 0.0, 0.0, 0.0, 0.0, -0.006, -0.05, 0.992, 192.0, 255.0, 208.0, 254.0, 112.0, 31.0, 0.0, 0.0, 0.0, 0.0, 1.7151627406260383E9, 0.0, 2024-05-08 13:05:40.626
223.0, 5813.711084569823, 0.0, 0.0, 0.0, 0.0, 0.0, 0.0, 0.0, -0.006, -0.05, 0.992, 192.0, 0.0, 0.0, 0.0, 0.0, 0.0, 0.0, 0.0, 0.0, 0.0, 1.7151627406260567E9, 0.0, 2024-05-08 13:05:40.626
224.0, 5457.960719819155, 0.0, 0.0, 0.0, 0.0, 0.0, 0.0, 0.0, -0.006, -0.05, 0.992, 192.0, 0.0, 0.0, 0.0, 0.0, 0.0, 0.0, 0.0, 0.0, 0.0, 1.7151627406260953E9, 0.0, 2024-05-08 13:05:40.626
225.0, 3202.9602769565913, 0.0, 0.0, 0.0, 0.0, 0.0, 0.0, 0.0, -0.006, -0.05, 0.992, 192.0, 0.0, 0.0, 0.0, 0.0, 0.0, 0.0, 0.0, 0.0, 0.0, 1.7151627406261125E9, 0.0, 2024-05-08 13:05:40.626
226.0, 2261.0801173544073, 0.0, 0.0, 0.0, 0.0, 0.0, 0.0, 0.0, -0.006, -0.05, 0.992, 192.0, 0.0, 0.0, 0.0, 0.0, 0.0, 0.0, 0.0, 0.0, 0.0, 1.7151627406261296E9, 0.0, 2024-05-08 13:05:40.626
227.0, 3895.551430648736, 0.0, 0.0, 0.0, 0.0, 0.0, 0.0, 0.0, -0.006, -0.05, 0.992, 192.0, 0.0, 0.0, 0.0, 0.0, 0.0, 0.0, 0.0, 0.0, 0.0, 1.7151627406261468E9, 0.0, 2024-05-08 13:05:40.626
228.0, 5834.274689468705, 0.0, 0.0, 0.0, 0.0, 0.0, 0.0, 0.0, -0.006, -0.05, 0.992, 192.0, 0.0, 0.0, 0.0, 0.0, 0.0, 0.0, 0.0, 0.0, 0.0, 1.7151627406261656E9, 0.0, 2024-05-08 13:05:40.626
229.0, 5496.003388882088, 0.0, 0.0, 0.0, 0.0, 0.0, 0.0, 0.0, -0.006, -0.05, 0.992, 192.0, 0.0, 0.0, 0.0, 0.0, 0.0, 0.0, 0.0, 0.0, 0.0, 1.7151627406261828E9, 0.0, 2024-05-08 13:05:40.626
230.0, 3240.041821007946, 0.0, 0.0, 0.0, 0.0, 0.0, 0.0, 0.0, -0.006, -0.05, 0.992, 192.0, 0.0, 0.0, 0.0, 0.0, 0.0, 0.0, 0.0, 0.0, 0.0, 1.7151627406262E9, 0.0, 2024-05-08 13:05:40.626
231.0, 2289.243315368094, 0.0, 0.0, 0.0, 0.0, 0.0, 0.0, 0.0, -0.006, -0.05, 0.992, 192.0, 0.0, 0.0, 0.0, 0.0, 0.0, 0.0, 0.0, 0.0, 0.0, 1.7151627406262171E9, 0.0, 2024-05-08 13:05:40.626
232.0, 3900.3794074510824, 0.0, 0.0, 0.0, 0.0, 0.0, 0.0, 0.0, -0.002, -0.048, 0.994, 192.0, 255.0, 240.0, 254.0, 128.0, 31.0, 16.0, 0.0, 0.0, 0.0, 1.7151627406262343E9, 0.0, 2024-05-08 13:05:40.626
233.0, 5835.571090647112, 0.0, 0.0, 0.0, 0.0, 0.0, 0.0, 0.0, -0.002, -0.048, 0.994, 192.0, 0.0, 0.0, 0.0, 0.0, 0.0, 0.0, 0.0, 0.0, 0.0, 1.715162740626253E9, 0.0, 2024-05-08 13:05:40.626
234.0, 5543.411438871794, 0.0, 0.0, 0.0, 0.0, 0.0, 0.0, 0.0, -0.002, -0.048, 0.994, 192.0, 0.0, 0.0, 0.0, 0.0, 0.0, 0.0, 0.0, 0.0, 0.0, 1.71516274062627E9, 0.0, 2024-05-08 13:05:40.626
235.0, 3311.813272453937, 0.0, 0.0, 0.0, 0.0, 0.0, 0.0, 0.0, -0.002, -0.048, 0.994, 192.0, 0.0, 0.0, 0.0, 0.0, 0.0, 0.0, 0.0, 0.0, 0.0, 1.715162740626289E9, 0.0, 2024-05-08 13:05:40.626
236.0, 2306.3200481319486, 0.0, 0.0, 0.0, 0.0, 0.0, 0.0, 0.0, -0.002, -0.048, 0.994, 192.0, 0.0, 0.0, 0.0, 0.0, 0.0, 0.0, 0.0, 0.0, 0.0, 1.7151627406263063E9, 0.0, 2024-05-08 13:05:40.626
237.0, 3924.1393118070737, 0.0, 0.0, 0.0, 0.0, 0.0, 0.0, 0.0, -0.002, -0.048, 0.994, 192.0, 0.0, 0.0, 0.0, 0.0, 0.0, 0.0, 0.0, 0.0, 0.0, 1.7151627406263235E9, 0.0, 2024-05-08 13:05:40.626
238.0, 5889.59525699559, 0.0, 0.0, 0.0, 0.0, 0.0, 0.0, 0.0, -0.002, -0.048, 0.994, 192.0, 0.0, 0.0, 0.0, 0.0, 0.0, 0.0, 0.0, 0.0, 0.0, 1.7151627406263428E9, 0.0, 2024-05-08 13:05:40.626
239.0, 5619.764997931123, 0.0, 0.0, 0.0, 0.0, 0.0, 0.0, 0.0, -0.002, -0.048, 0.994, 192.0, 0.0, 0.0, 0.0, 0.0, 0.0, 0.0, 0.0, 0.0, 0.0, 1.71516274062636E9, 0.0, 2024-05-08 13:05:40.626
240.0, 3355.6673950752493, 0.0, 0.0, 0.0, 0.0, 0.0, 0.0, 0.0, -0.002, -0.048, 0.994, 192.0, 0.0, 0.0, 0.0, 0.0, 0.0, 0.0, 0.0, 0.0, 0.0, 1.7151627406263773E9, 0.0, 2024-05-08 13:05:40.626
241.0, 2326.5483768640015, 0.0, 0.0, 0.0, 0.0, 0.0, 0.0, 0.0, -0.002, -0.048, 0.994, 192.0, 0.0, 0.0, 0.0, 0.0, 0.0, 0.0, 0.0, 0.0, 0.0, 1.7151627406263964E9, 0.0, 2024-05-08 13:05:40.626
242.0, 3886.588381122158, 0.0, 0.0, 0.0, 0.0, 0.0, 0.0, 0.0, -0.002, -0.048, 0.994, 192.0, 0.0, 0.0, 254.0, 144.0, 31.0, 0.0, 0.0, 0.0, 0.0, 1.7151627406264238E9, 0.0, 2024-05-08 13:05:40.626
243.0, 5834.654669124445, 0.0, 0.0, 0.0, 0.0, 0.0, 0.0, 0.0, -0.002, -0.048, 0.994, 192.0, 0.0, 0.0, 0.0, 0.0, 0.0, 0.0, 0.0, 0.0, 0.0, 1.7151627406264417E9, 0.0, 2024-05-08 13:05:40.626
244.0, 5599.223744776696, 0.0, 0.0, 0.0, 0.0, 0.0, 0.0, 0.0, -0.002, -0.048, 0.994, 192.0, 0.0, 0.0, 0.0, 0.0, 0.0, 0.0, 0.0, 0.0, 0.0, 1.715162740626459E9, 0.0, 2024-05-08 13:05:40.626
245.0, 3349.0736304609336, 0.0, 0.0, 0.0, 0.0, 0.0, 0.0, 0.0, -0.002, -0.048, 0.994, 192.0, 0.0, 0.0, 0.0, 0.0, 0.0, 0.0, 0.0, 0.0, 0.0, 1.7151627406264758E9, 0.0, 2024-05-08 13:05:40.626
246.0, 2301.0897399294067, 0.0, 0.0, 0.0, 0.0, 0.0, 0.0, 0.0, -0.002, -0.048, 0.994, 192.0, 0.0, 0.0, 0.0, 0.0, 0.0, 0.0, 0.0, 0.0, 0.0, 1.7151627406264932E9, 0.0, 2024-05-08 13:05:40.626
247.0, 3899.4406341839594, 0.0, 0.0, 0.0, 0.0, 0.0, 0.0, 0.0, -0.002, -0.048, 0.994, 192.0, 0.0, 0.0, 0.0, 0.0, 0.0, 0.0, 0.0, 0.0, 0.0, 1.7151627406265109E9, 0.0, 2024-05-08 13:05:40.626
248.0, 5883.1579545924615, 0.0, 0.0, 0.0, 0.0, 0.0, 0.0, 0.0, -0.002, -0.048, 0.994, 192.0, 0.0, 0.0, 0.0, 0.0, 0.0, 0.0, 0.0, 0.0, 0.0, 1.715162740626528E9, 0.0, 2024-05-08 13:05:40.626
249.0, 5648.822265723022, 0.0, 0.0, 0.0, 0.0, 0.0, 0.0, 0.0, -0.002, -0.048, 0.994, 192.0, 0.0, 0.0, 0.0, 0.0, 0.0, 0.0, 0.0, 0.0, 0.0, 1.7151627406265454E9, 0.0, 2024-05-08 13:05:40.626
250.0, 3373.280569706031, 0.0, 0.0, 0.0, 0.0, 0.0, 0.0, 0.0, -0.002, -0.048, 0.994, 192.0, 0.0, 0.0, 0.0, 0.0, 0.0, 0.0, 0.0, 0.0, 0.0, 1.7151627406265626E9, 0.0, 2024-05-08 13:05:40.626
251.0, 2311.1256731898397, 0.0, 0.0, 0.0, 0.0, 0.0, 0.0, 0.0, -0.002, -0.048, 0.994, 192.0, 0.0, 0.0, 0.0, 0.0, 0.0, 0.0, 0.0, 0.0, 0.0, 1.71516274062658E9, 0.0, 2024-05-08 13:05:40.626
252.0, 3893.67388411449, 0.0, 0.0, 0.0, 0.0, 0.0, 0.0, 0.0, 0.004, -0.048, 0.994, 192.0, 0.0, 32.0, 254.0, 128.0, 31.0, 16.0, 0.0, 0.0, 0.0, 1.7151627406265972E9, 0.0, 2024-05-08 13:05:40.626
253.0, 5910.1588618944725, 0.0, 0.0, 0.0, 0.0, 0.0, 0.0, 0.0, 0.004, -0.048, 0.994, 192.0, 0.0, 0.0, 0.0, 0.0, 0.0, 0.0, 0.0, 0.0, 0.0, 1.7151627406266172E9, 0.0, 2024-05-08 13:05:40.626
254.0, 5699.113690747463, 0.0, 0.0, 0.0, 0.0, 0.0, 0.0, 0.0, 0.004, -0.048, 0.994, 192.0, 0.0, 0.0, 0.0, 0.0, 0.0, 0.0, 0.0, 0.0, 0.0, 1.7151627406266344E9, 0.0, 2024-05-08 13:05:40.626
255.0, 3405.131805554844, 0.0, 0.0, 0.0, 0.0, 0.0, 0.0, 0.0, 0.004, -0.048, 0.994, 192.0, 0.0, 0.0, 0.0, 0.0, 0.0, 0.0, 0.0, 0.0, 0.0, 1.7151627406266513E9, 0.0, 2024-05-08 13:05:40.626
0.0, 2315.730132547633, 0.0, 0.0, 0.0, 0.0, 0.0, 0.0, 0.0, 0.004, -0.048, 0.994, 192.0, 0.0, 0.0, 0.0, 0.0, 0.0, 0.0, 0.0, 0.0, 0.0, 1.7151627406266687E9, 0.0, 2024-05-08 13:05:40.626
1.0, 3909.8565471001325, 0.0, 0.0, 0.0, 0.0, 0.0, 0.0, 0.0, 0.004, -0.048, 0.994, 192.0, 0.0, 0.0, 0.0, 0.0, 0.0, 0.0, 0.0, 0.0, 0.0, 1.7151627406266856E9, 0.0, 2024-05-08 13:05:40.626
2.0, 5934.8128360286755, 0.0, 0.0, 0.0, 0.0, 0.0, 0.0, 0.0, 0.004, -0.048, 0.994, 192.0, 0.0, 0.0, 0.0, 0.0, 0.0, 0.0, 0.0, 0.0, 0.0, 1.7151627406267033E9, 0.0, 2024-05-08 13:05:40.626
3.0, 5723.745313137211, 0.0, 0.0, 0.0, 0.0, 0.0, 0.0, 0.0, 0.004, -0.048, 0.994, 192.0, 0.0, 0.0, 0.0, 0.0, 0.0, 0.0, 0.0, 0.0, 0.0, 1.715162740626728E9, 0.0, 2024-05-08 13:05:40.626
4.0, 3398.381578729341, 0.0, 0.0, 0.0, 0.0, 0.0, 0.0, 0.0, 0.004, -0.048, 0.994, 192.0, 0.0, 0.0, 0.0, 0.0, 0.0, 0.0, 0.0, 0.0, 0.0, 1.715162740626747E9, 0.0, 2024-05-08 13:05:40.626
5.0, 2291.2996758579825, 0.0, 0.0, 0.0, 0.0, 0.0, 0.0, 0.0, 0.004, -0.048, 0.994, 192.0, 0.0, 0.0, 0.0, 0.0, 0.0, 0.0, 0.0, 0.0, 0.0, 1.715162740626764E9, 0.0, 2024-05-08 13:05:40.626
6.0, 3867.0529564682197, 0.0, 0.0, 0.0, 0.0, 0.0, 0.0, 0.0, 0.004, -0.05, 0.992, 192.0, 0.0, 32.0, 254.0, 112.0, 31.0, 0.0, 0.0, 0.0, 0.0, 1.7151627406267812E9, 0.0, 2024-05-08 13:05:40.626
7.0, 5916.909088719975, 0.0, 0.0, 0.0, 0.0, 0.0, 0.0, 0.0, 0.004, -0.05, 0.992, 192.0, 0.0, 0.0, 0.0, 0.0, 0.0, 0.0, 0.0, 0.0, 0.0, 1.7151627406268008E9, 0.0, 2024-05-08 13:05:40.626
8.0, 5761.609168244501, 0.0, 0.0, 0.0, 0.0, 0.0, 0.0, 0.0, 0.004, -0.05, 0.992, 192.0, 0.0, 0.0, 0.0, 0.0, 0.0, 0.0, 0.0, 0.0, 0.0, 1.715162740626818E9, 0.0, 2024-05-08 13:05:40.626
9.0, 3462.531085316072, 0.0, 0.0, 0.0, 0.0, 0.0, 0.0, 0.0, 0.004, -0.05, 0.992, 192.0, 0.0, 0.0, 0.0, 0.0, 0.0, 0.0, 0.0, 0.0, 0.0, 1.715162740626835E9, 0.0, 2024-05-08 13:05:40.626
10.0, 2332.628051355845, 0.0, 0.0, 0.0, 0.0, 0.0, 0.0, 0.0, 0.004, -0.05, 0.992, 192.0, 0.0, 0.0, 0.0, 0.0, 0.0, 0.0, 0.0, 0.0, 0.0, 1.7151627406268632E9, 0.0, 2024-05-08 13:05:40.626
11.0, 3899.038302783764, 0.0, 0.0, 0.0, 0.0, 0.0, 0.0, 0.0, 0.004, -0.05, 0.992, 192.0, 0.0, 0.0, 0.0, 0.0, 0.0, 0.0, 0.0, 0.0, 0.0, 1.7151627406268876E9, 0.0, 2024-05-08 13:05:40.626
12.0, 5954.527074638257, 0.0, 0.0, 0.0, 0.0, 0.0, 0.0, 0.0, 0.004, -0.05, 0.992, 192.0, 0.0, 0.0, 0.0, 0.0, 0.0, 0.0, 0.0, 0.0, 0.0, 1.715162740626917E9, 0.0, 2024-05-08 13:05:40.626
13.0, 5801.417625119403, 0.0, 0.0, 0.0, 0.0, 0.0, 0.0, 0.0, 0.004, -0.05, 0.992, 192.0, 0.0, 0.0, 0.0, 0.0, 0.0, 0.0, 0.0, 0.0, 0.0, 1.7151627406269352E9, 0.0, 2024-05-08 13:05:40.626
14.0, 3464.7886115060583, 0.0, 0.0, 0.0, 0.0, 0.0, 0.0, 0.0, 0.004, -0.05, 0.992, 192.0, 0.0, 0.0, 0.0, 0.0, 0.0, 0.0, 0.0, 0.0, 0.0, 1.7151627406269615E9, 0.0, 2024-05-08 13:05:40.626
15.0, 2301.402664351781, 0.0, 0.0, 0.0, 0.0, 0.0, 0.0, 0.0, 0.004, -0.05, 0.992, 192.0, 0.0, 0.0, 0.0, 0.0, 0.0, 0.0, 0.0, 0.0, 0.0, 1.7151627406269896E9, 0.0, 2024-05-08 13:05:40.626
16.0, 3858.224017408373, 0.0, 0.0, 0.0, 0.0, 0.0, 0.0, 0.0, 0.004, -0.05, 0.992, 192.0, 0.0, 0.0, 254.0, 144.0, 30.0, 240.0, 0.0, 0.0, 0.0, 1.7151627406270077E9, 0.0, 2024-05-08 13:05:40.627
17.0, 5943.50766462179, 0.0, 0.0, 0.0, 0.0, 0.0, 0.0, 0.0, 0.004, -0.05, 0.992, 192.0, 0.0, 0.0, 0.0, 0.0, 0.0, 0.0, 0.0, 0.0, 0.0, 1.7151627406270254E9, 0.0, 2024-05-08 13:05:40.627
18.0, 5839.236776737783, 0.0, 0.0, 0.0, 0.0, 0.0, 0.0, 0.0, 0.004, -0.05, 0.992, 192.0, 0.0, 0.0, 0.0, 0.0, 0.0, 0.0, 0.0, 0.0, 0.0, 1.7151627406270423E9, 0.0, 2024-05-08 13:05:40.627
19.0, 3495.432853154284, 0.0, 0.0, 0.0, 0.0, 0.0, 0.0, 0.0, 0.004, -0.05, 0.992, 192.0, 0.0, 0.0, 0.0, 0.0, 0.0, 0.0, 0.0, 0.0, 0.0, 1.7151627406270595E9, 0.0, 2024-05-08 13:05:40.627
20.0, 2284.8847251993093, 0.0, 0.0, 0.0, 0.0, 0.0, 0.0, 0.0, 0.004, -0.05, 0.992, 192.0, 0.0, 0.0, 0.0, 0.0, 0.0, 0.0, 0.0, 0.0, 0.0, 1.7151627406270764E9, 0.0, 2024-05-08 13:05:40.627
21.0, 3821.433046034938, 0.0, 0.0, 0.0, 0.0, 0.0, 0.0, 0.0, 0.004, -0.05, 0.992, 192.0, 0.0, 0.0, 0.0, 0.0, 0.0, 0.0, 0.0, 0.0, 0.0, 1.715162740627118E9, 0.0, 2024-05-08 13:05:40.627
22.0, 5926.252117902293, 0.0, 0.0, 0.0, 0.0, 0.0, 0.0, 0.0, 0.004, -0.05, 0.992, 192.0, 0.0, 0.0, 0.0, 0.0, 0.0, 0.0, 0.0, 0.0, 0.0, 1.7151627406271355E9, 0.0, 2024-05-08 13:05:40.627
23.0, 5828.798512077155, 0.0, 0.0, 0.0, 0.0, 0.0, 0.0, 0.0, 0.004, -0.05, 0.992, 192.0, 0.0, 0.0, 0.0, 0.0, 0.0, 0.0, 0.0, 0.0, 0.0, 1.7151627406271544E9, 0.0, 2024-05-08 13:05:40.627
24.0, 3489.152012962343, 0.0, 0.0, 0.0, 0.0, 0.0, 0.0, 0.0, 0.004, -0.05, 0.992, 192.0, 0.0, 0.0, 0.0, 0.0, 0.0, 0.0, 0.0, 0.0, 0.0, 1.7151627406271727E9, 0.0, 2024-05-08 13:05:40.627
25.0, 2271.0936988703847, 0.0, 0.0, 0.0, 0.0, 0.0, 0.0, 0.0, 0.004, -0.05, 0.992, 192.0, 0.0, 0.0, 0.0, 0.0, 0.0, 0.0, 0.0, 0.0, 0.0, 1.7151627406271896E9, 0.0, 2024-05-08 13:05:40.627
26.0, 3774.6284931455248, 0.0, 0.0, 0.0, 0.0, 0.0, 0.0, 0.0, -0.002, -0.046, 0.99, 192.0, 255.0, 240.0, 254.0, 144.0, 30.0, 240.0, 0.0, 0.0, 0.0, 1.7151627406272063E9, 0.0, 2024-05-08 13:05:40.627
27.0, 5876.340672533593, 0.0, 0.0, 0.0, 0.0, 0.0, 0.0, 0.0, -0.002, -0.046, 0.99, 192.0, 0.0, 0.0, 0.0, 0.0, 0.0, 0.0, 0.0, 0.0, 0.0, 1.715162740627224E9, 0.0, 2024-05-08 13:05:40.627
28.0, 5837.783913348188, 0.0, 0.0, 0.0, 0.0, 0.0, 0.0, 0.0, -0.002, -0.046, 0.99, 192.0, 0.0, 0.0, 0.0, 0.0, 0.0, 0.0, 0.0, 0.0, 0.0, 1.7151627406272411E9, 0.0, 2024-05-08 13:05:40.627
29.0, 3472.0082249651227, 0.0, 0.0, 0.0, 0.0, 0.0, 0.0, 0.0, -0.002, -0.046, 0.99, 192.0, 0.0, 0.0, 0.0, 0.0, 0.0, 0.0, 0.0, 0.0, 0.0, 1.7151627406272666E9, 0.0, 2024-05-08 13:05:40.627
30.0, 2218.4329889336814, 0.0, 0.0, 0.0, 0.0, 0.0, 0.0, 0.0, -0.002, -0.046, 0.99, 192.0, 0.0, 0.0, 0.0, 0.0, 0.0, 0.0, 0.0, 0.0, 0.0, 1.7151627406272833E9, 0.0, 2024-05-08 13:05:40.627
31.0, 3731.1319984354973, 0.0, 0.0, 0.0, 0.0, 0.0, 0.0, 0.0, -0.002, -0.046, 0.99, 192.0, 0.0, 0.0, 0.0, 0.0, 0.0, 0.0, 0.0, 0.0, 0.0, 1.7151627406273003E9, 0.0, 2024-05-08 13:05:40.627
32.0, 5857.855779869054, 0.0, 0.0, 0.0, 0.0, 0.0, 0.0, 0.0, -0.002, -0.046, 0.99, 192.0, 0.0, 0.0, 0.0, 0.0, 0.0, 0.0, 0.0, 0.0, 0.0, 1.715162740627317E9, 0.0, 2024-05-08 13:05:40.627
33.0, 5829.469064410814, 0.0, 0.0, 0.0, 0.0, 0.0, 0.0, 0.0, -0.002, -0.046, 0.99, 192.0, 0.0, 0.0, 0.0, 0.0, 0.0, 0.0, 0.0, 0.0, 0.0, 1.7151627406273344E9, 0.0, 2024-05-08 13:05:40.627
34.0, 3488.0791292284885, 0.0, 0.0, 0.0, 0.0, 0.0, 0.0, 0.0, -0.002, -0.046, 0.99, 192.0, 0.0, 0.0, 0.0, 0.0, 0.0, 0.0, 0.0, 0.0, 0.0, 1.7151627406273513E9, 0.0, 2024-05-08 13:05:40.627
35.0, 2223.730352369589, 0.0, 0.0, 0.0, 0.0, 0.0, 0.0, 0.0, -0.002, -0.046, 0.99, 192.0, 0.0, 0.0, 0.0, 0.0, 0.0, 0.0, 0.0, 0.0, 0.0, 1.71516274062737E9, 0.0, 2024-05-08 13:05:40.627
36.0, 3737.010507227243, 0.0, 0.0, 0.0, 0.0, 0.0, 0.0, 0.0, -0.002, -0.046, 0.99, 192.0, 0.0, 0.0, 254.0, 112.0, 31.0, 16.0, 0.0, 0.0, 0.0, 1.7151627406273868E9, 0.0, 2024-05-08 13:05:40.627
37.0, 5854.726535645311, 0.0, 0.0, 0.0, 0.0, 0.0, 0.0, 0.0, -0.002, -0.046, 0.99, 192.0, 0.0, 0.0, 0.0, 0.0, 0.0, 0.0, 0.0, 0.0, 0.0, 1.7151627406274045E9, 0.0, 2024-05-08 13:05:40.627
38.0, 5840.376715705003, 0.0, 0.0, 0.0, 0.0, 0.0, 0.0, 0.0, -0.002, -0.046, 0.99, 192.0, 0.0, 0.0, 0.0, 0.0, 0.0, 0.0, 0.0, 0.0, 0.0, 1.715162740627422E9, 0.0, 2024-05-08 13:05:40.627
39.0, 3505.826414326002, 0.0, 0.0, 0.0, 0.0, 0.0, 0.0, 0.0, -0.002, -0.046, 0.99, 192.0, 0.0, 0.0, 0.0, 0.0, 0.0, 0.0, 0.0, 0.0, 0.0, 1.7151627406274505E9, 0.0, 2024-05-08 13:05:40.627
40.0, 2261.348338287871, 0.0, 0.0, 0.0, 0.0, 0.0, 0.0, 0.0, -0.002, -0.046, 0.99, 192.0, 0.0, 0.0, 0.0, 0.0, 0.0, 0.0, 0.0, 0.0, 0.0, 1.7151627406274676E9, 0.0, 2024-05-08 13:05:40.627
41.0, 3769.308777965162, 0.0, 0.0, 0.0, 0.0, 0.0, 0.0, 0.0, -0.002, -0.046, 0.99, 192.0, 0.0, 0.0, 0.0, 0.0, 0.0, 0.0, 0.0, 0.0, 0.0, 1.7151627406274848E9, 0.0, 2024-05-08 13:05:40.627
42.0, 5890.645788984989, 0.0, 0.0, 0.0, 0.0, 0.0, 0.0, 0.0, -0.002, -0.046, 0.99, 192.0, 0.0, 0.0, 0.0, 0.0, 0.0, 0.0, 0.0, 0.0, 0.0, 1.7151627406275017E9, 0.0, 2024-05-08 13:05:40.627
43.0, 5913.131643907028, 0.0, 0.0, 0.0, 0.0, 0.0, 0.0, 0.0, -0.002, -0.046, 0.99, 192.0, 0.0, 0.0, 0.0, 0.0, 0.0, 0.0, 0.0, 0.0, 0.0, 1.715162740627519E9, 0.0, 2024-05-08 13:05:40.627
44.0, 3563.0468801315883, 0.0, 0.0, 0.0, 0.0, 0.0, 0.0, 0.0, -0.002, -0.046, 0.99, 192.0, 0.0, 0.0, 0.0, 0.0, 0.0, 0.0, 0.0, 0.0, 0.0, 1.7151627406275356E9, 0.0, 2024-05-08 13:05:40.627
45.0, 2231.8440356068654, 0.0, 0.0, 0.0, 0.0, 0.0, 0.0, 0.0, -0.002, -0.046, 0.99, 192.0, 0.0, 0.0, 0.0, 0.0, 0.0, 0.0, 0.0, 0.0, 0.0, 1.7151627406275525E9, 0.0, 2024-05-08 13:05:40.627
46.0, 3723.666515787425, 0.0, 0.0, 0.0, 0.0, 0.0, 0.0, 0.0, 0.002, -0.05, 0.994, 192.0, 0.0, 16.0, 254.0, 112.0, 31.0, 16.0, 0.0, 0.0, 0.0, 1.7151627406275692E9, 0.0, 2024-05-08 13:05:40.627
47.0, 5893.015073897252, 0.0, 0.0, 0.0, 0.0, 0.0, 0.0, 0.0, 0.002, -0.05, 0.994, 192.0, 0.0, 0.0, 0.0, 0.0, 0.0, 0.0, 0.0, 0.0, 0.0, 1.7151627406275873E9, 0.0, 2024-05-08 13:05:40.627
48.0, 5941.294841920715, 0.0, 0.0, 0.0, 0.0, 0.0, 0.0, 0.0, 0.002, -0.05, 0.994, 192.0, 0.0, 0.0, 0.0, 0.0, 0.0, 0.0, 0.0, 0.0, 0.0, 1.7151627406276045E9, 0.0, 2024-05-08 13:05:40.627
49.0, 3631.219700720275, 0.0, 0.0, 0.0, 0.0, 0.0, 0.0, 0.0, 0.002, -0.05, 0.994, 192.0, 0.0, 0.0, 0.0, 0.0, 0.0, 0.0, 0.0, 0.0, 0.0, 1.7151627406276212E9, 0.0, 2024-05-08 13:05:40.627
50.0, 2352.7446213656212, 0.0, 0.0, 0.0, 0.0, 0.0, 0.0, 0.0, 0.002, -0.05, 0.994, 192.0, 0.0, 0.0, 0.0, 0.0, 0.0, 0.0, 0.0, 0.0, 0.0, 1.715162740627641E9, 0.0, 2024-05-08 13:05:40.627
51.0, 3820.9860111458315, 0.0, 0.0, 0.0, 0.0, 0.0, 0.0, 0.0, 0.002, -0.05, 0.994, 192.0, 0.0, 0.0, 0.0, 0.0, 0.0, 0.0, 0.0, 0.0, 0.0, 1.715162740627658E9, 0.0, 2024-05-08 13:05:40.627
52.0, 5999.118804826594, 0.0, 0.0, 0.0, 0.0, 0.0, 0.0, 0.0, 0.002, -0.05, 0.994, 192.0, 0.0, 0.0, 0.0, 0.0, 0.0, 0.0, 0.0, 0.0, 0.0, 1.7151627406276755E9, 0.0, 2024-05-08 13:05:40.627
53.0, 6076.120564475127, 0.0, 0.0, 0.0, 0.0, 0.0, 0.0, 0.0, 0.002, -0.05, 0.994, 192.0, 0.0, 0.0, 0.0, 0.0, 0.0, 0.0, 0.0, 0.0, 0.0, 1.7151627406276927E9, 0.0, 2024-05-08 13:05:40.627
54.0, 3737.5022456052598, 0.0, 0.0, 0.0, 0.0, 0.0, 0.0, 0.0, 0.002, -0.05, 0.994, 192.0, 0.0, 0.0, 0.0, 0.0, 0.0, 0.0, 0.0, 0.0, 0.0, 1.7151627406277113E9, 0.0, 2024-05-08 13:05:40.627
55.0, 2411.596764516445, 0.0, 0.0, 0.0, 0.0, 0.0, 0.0, 0.0, 0.002, -0.05, 0.994, 192.0, 0.0, 0.0, 0.0, 0.0, 0.0, 0.0, 0.0, 0.0, 0.0, 1.7151627406277285E9, 0.0, 2024-05-08 13:05:40.627
56.0, 3831.6477932510134, 0.0, 0.0, 0.0, 0.0, 0.0, 0.0, 0.0, 0.002, -0.046, 0.994, 192.0, 0.0, 16.0, 254.0, 144.0, 31.0, 16.0, 0.0, 0.0, 0.0, 1.7151627406277547E9, 0.0, 2024-05-08 13:05:40.627
57.0, 5985.864220364598, 0.0, 0.0, 0.0, 0.0, 0.0, 0.0, 0.0, 0.002, -0.046, 0.994, 192.0, 0.0, 0.0, 0.0, 0.0, 0.0, 0.0, 0.0, 0.0, 0.0, 1.7151627406277728E9, 0.0, 2024-05-08 13:05:40.627
58.0, 6089.956294292962, 0.0, 0.0, 0.0, 0.0, 0.0, 0.0, 0.0, 0.002, -0.046, 0.994, 192.0, 0.0, 0.0, 0.0, 0.0, 0.0, 0.0, 0.0, 0.0, 0.0, 1.71516274062779E9, 0.0, 2024-05-08 13:05:40.627
59.0, 3764.5702081406366, 0.0, 0.0, 0.0, 0.0, 0.0, 0.0, 0.0, 0.002, -0.046, 0.994, 192.0, 0.0, 0.0, 0.0, 0.0, 0.0, 0.0, 0.0, 0.0, 0.0, 1.7151627406278074E9, 0.0, 2024-05-08 13:05:40.627
60.0, 2417.207052374727, 0.0, 0.0, 0.0, 0.0, 0.0, 0.0, 0.0, 0.002, -0.046, 0.994, 192.0, 0.0, 0.0, 0.0, 0.0, 0.0, 0.0, 0.0, 0.0, 0.0, 1.7151627406278265E9, 0.0, 2024-05-08 13:05:40.627
61.0, 3837.4368950649377, 0.0, 0.0, 0.0, 0.0, 0.0, 0.0, 0.0, 0.002, -0.046, 0.994, 192.0, 0.0, 0.0, 0.0, 0.0, 0.0, 0.0, 0.0, 0.0, 0.0, 1.7151627406278436E9, 0.0, 2024-05-08 13:05:40.627
62.0, 5981.751499384821, 0.0, 0.0, 0.0, 0.0, 0.0, 0.0, 0.0, 0.002, -0.046, 0.994, 192.0, 0.0, 0.0, 0.0, 0.0, 0.0, 0.0, 0.0, 0.0, 0.0, 1.7151627406278732E9, 0.0, 2024-05-08 13:05:40.627
63.0, 6113.559736437766, 0.0, 0.0, 0.0, 0.0, 0.0, 0.0, 0.0, 0.002, -0.046, 0.994, 192.0, 0.0, 0.0, 0.0, 0.0, 0.0, 0.0, 0.0, 0.0, 0.0, 1.7151627406278975E9, 0.0, 2024-05-08 13:05:40.627
64.0, 3813.1181970975636, 0.0, 0.0, 0.0, 0.0, 0.0, 0.0, 0.0, 0.002, -0.046, 0.994, 192.0, 0.0, 0.0, 0.0, 0.0, 0.0, 0.0, 0.0, 0.0, 0.0, 1.7151627406279252E9, 0.0, 2024-05-08 13:05:40.627
65.0, 2467.8337535659975, 0.0, 0.0, 0.0, 0.0, 0.0, 0.0, 0.0, 0.002, -0.046, 0.994, 192.0, 0.0, 0.0, 0.0, 0.0, 0.0, 0.0, 0.0, 0.0, 0.0, 1.7151627406279504E9, 0.0, 2024-05-08 13:05:40.627
1.0, 727.6833924869767, 0.0, 0.0, 0.0, 0.0, 0.0, 0.0, 0.0, -0.004, -0.048, 0.988, 192.0, 255.0, 224.0, 254.0, 128.0, 30.0, 224.0, 0.0, 0.0, 0.0, 1.7151627407376542E9, 0.0, 2024-05-08 13:05:40.737
2.0, 1257.2409221221117, 0.0, 0.0, 0.0, 0.0, 0.0, 0.0, 0.0, -0.004, -0.048, 0.988, 192.0, 0.0, 0.0, 0.0, 0.0, 0.0, 0.0, 0.0, 0.0, 0.0, 1.7151627412170355E9, 0.0, 2024-05-08 13:05:41.217
3.0, 81.9861986620663, 0.0, 0.0, 0.0, 0.0, 0.0, 0.0, 0.0, -0.004, -0.048, 0.988, 192.0, 0.0, 0.0, 0.0, 0.0, 0.0, 0.0, 0.0, 0.0, 0.0, 1.7151627412170956E9, 0.0, 2024-05-08 13:05:41.217
4.0, -984.0355496448934, 0.0, 0.0, 0.0, 0.0, 0.0, 0.0, 0.0, -0.004, -0.048, 0.988, 192.0, 0.0, 0.0, 0.0, 0.0, 0.0, 0.0, 0.0, 0.0, 0.0, 1.7151627412171304E9, 0.0, 2024-05-08 13:05:41.217
5.0, -519.2533754412384, 0.0, 0.0, 0.0, 0.0, 0.0, 0.0, 0.0, -0.004, -0.048, 0.988, 192.0, 0.0, 0.0, 0.0, 0.0, 0.0, 0.0, 0.0, 0.0, 0.0, 1.7151627412171624E9, 0.0, 2024-05-08 13:05:41.217
6.0, 821.0689808212496, 0.0, 0.0, 0.0, 0.0, 0.0, 0.0, 0.0, -0.004, -0.048, 0.988, 192.0, 0.0, 0.0, 0.0, 0.0, 0.0, 0.0, 0.0, 0.0, 0.0, 1.715162741217194E9, 0.0, 2024-05-08 13:05:41.217
7.0, 1347.161990065812, 0.0, 0.0, 0.0, 0.0, 0.0, 0.0, 0.0, -0.004, -0.048, 0.988, 192.0, 0.0, 0.0, 0.0, 0.0, 0.0, 0.0, 0.0, 0.0, 0.0, 1.7151627412172267E9, 0.0, 2024-05-08 13:05:41.217
8.0, 244.77395353006764, 0.0, 0.0, 0.0, 0.0, 0.0, 0.0, 0.0, -0.004, -0.048, 0.988, 192.0, 0.0, 0.0, 254.0, 80.0, 30.0, 224.0, 0.0, 0.0, 0.0, 1.715162741217249E9, 0.0, 2024-05-08 13:05:41.217
9.0, -863.7161092419755, 0.0, 0.0, 0.0, 0.0, 0.0, 0.0, 0.0, -0.004, -0.048, 0.988, 192.0, 0.0, 0.0, 0.0, 0.0, 0.0, 0.0, 0.0, 0.0, 0.0, 1.7151627412173212E9, 0.0, 2024-05-08 13:05:41.217
10.0, -517.8005120516434, 0.0, 0.0, 0.0, 0.0, 0.0, 0.0, 0.0, -0.004, -0.048, 0.988, 192.0, 0.0, 0.0, 0.0, 0.0, 0.0, 0.0, 0.0, 0.0, 0.0, 1.7151627412173412E9, 0.0, 2024-05-08 13:05:41.217
11.0, 887.9454002315284, 0.0, 0.0, 0.0, 0.0, 0.0, 0.0, 0.0, -0.004, -0.048, 0.988, 192.0, 0.0, 0.0, 0.0, 0.0, 0.0, 0.0, 0.0, 0.0, 0.0, 1.7151627412173607E9, 0.0, 2024-05-08 13:05:41.217
12.0, 1482.1441748314114, 0.0, 0.0, 0.0, 0.0, 0.0, 0.0, 0.0, -0.004, -0.048, 0.988, 192.0, 0.0, 0.0, 0.0, 0.0, 0.0, 0.0, 0.0, 0.0, 0.0, 1.715162741217381E9, 0.0, 2024-05-08 13:05:41.217
13.0, 279.26269522460643, 0.0, 0.0, 0.0, 0.0, 0.0, 0.0, 0.0, -0.004, -0.048, 0.988, 192.0, 0.0, 0.0, 0.0, 0.0, 0.0, 0.0, 0.0, 0.0, 0.0, 1.7151627412174022E9, 0.0, 2024-05-08 13:05:41.217
14.0, -829.5179402253557, 0.0, 0.0, 0.0, 0.0, 0.0, 0.0, 0.0, -0.004, -0.048, 0.988, 192.0, 0.0, 0.0, 0.0, 0.0, 0.0, 0.0, 0.0, 0.0, 0.0, 1.7151627412174242E9, 0.0, 2024-05-08 13:05:41.217
15.0, -344.6191960119243, 0.0, 0.0, 0.0, 0.0, 0.0, 0.0, 0.0, -0.004, -0.048, 0.988, 192.0, 0.0, 0.0, 0.0, 0.0, 0.0, 0.0, 0.0, 0.0, 0.0, 1.7151627412174442E9, 0.0, 2024-05-08 13:05:41.217
16.0, 1013.7186662815412, 0.0, 0.0, 0.0, 0.0, 0.0, 0.0, 0.0, -0.004, -0.048, 0.988, 192.0, 0.0, 0.0, 0.0, 0.0, 0.0, 0.0, 0.0, 0.0, 0.0, 1.7151627412174644E9, 0.0, 2024-05-08 13:05:41.217
17.0, 1553.9156262774022, 0.0, 0.0, 0.0, 0.0, 0.0, 0.0, 0.0, -0.004, -0.048, 0.988, 192.0, 0.0, 0.0, 0.0, 0.0, 0.0, 0.0, 0.0, 0.0, 0.0, 1.7151627412174847E9, 0.0, 2024-05-08 13:05:41.217
18.0, 309.4151984948157, 0.0, 0.0, 0.0, 0.0, 0.0, 0.0, 0.0, -0.004, -0.056, 0.988, 192.0, 255.0, 224.0, 254.0, 64.0, 30.0, 224.0, 0.0, 0.0, 0.0, 1.715162741217505E9, 0.0, 2024-05-08 13:05:41.217
19.0, -721.4249040394908, 0.0, 0.0, 0.0, 0.0, 0.0, 0.0, 0.0, -0.004, -0.056, 0.988, 192.0, 0.0, 0.0, 0.0, 0.0, 0.0, 0.0, 0.0, 0.0, 0.0, 1.715162741217526E9, 0.0, 2024-05-08 13:05:41.217
20.0, -320.94869863375413, 0.0, 0.0, 0.0, 0.0, 0.0, 0.0, 0.0, -0.004, -0.056, 0.988, 192.0, 0.0, 0.0, 0.0, 0.0, 0.0, 0.0, 0.0, 0.0, 0.0, 1.7151627412175457E9, 0.0, 2024-05-08 13:05:41.217
21.0, 913.5604993773103, 0.0, 0.0, 0.0, 0.0, 0.0, 0.0, 0.0, -0.004, -0.056, 0.988, 192.0, 0.0, 0.0, 0.0, 0.0, 0.0, 0.0, 0.0, 0.0, 0.0, 1.715162741217567E9, 0.0, 2024-05-08 13:05:41.217
22.0, 1459.47950595373, 0.0, 0.0, 0.0, 0.0, 0.0, 0.0, 0.0, -0.004, -0.056, 0.988, 192.0, 0.0, 0.0, 0.0, 0.0, 0.0, 0.0, 0.0, 0.0, 0.0, 1.7151627412175865E9, 0.0, 2024-05-08 13:05:41.217
23.0, 270.79138407604506, 0.0, 0.0, 0.0, 0.0, 0.0, 0.0, 0.0, -0.004, -0.056, 0.988, 192.0, 0.0, 0.0, 0.0, 0.0, 0.0, 0.0, 0.0, 0.0, 0.0, 1.715162741217606E9, 0.0, 2024-05-08 13:05:41.217
24.0, -792.0340647738058, 0.0, 0.0, 0.0, 0.0, 0.0, 0.0, 0.0, -0.004, -0.056, 0.988, 192.0, 0.0, 0.0, 0.0, 0.0, 0.0, 0.0, 0.0, 0.0, 0.0, 1.7151627412176256E9, 0.0, 2024-05-08 13:05:41.217
25.0, -306.0847885709749, 0.0, 0.0, 0.0, 0.0, 0.0, 0.0, 0.0, -0.004, -0.056, 0.988, 192.0, 0.0, 0.0, 0.0, 0.0, 0.0, 0.0, 0.0, 0.0, 0.0, 1.71516274121765E9, 0.0, 2024-05-08 13:05:41.217
26.0, 1098.07414985587, 0.0, 0.0, 0.0, 0.0, 0.0, 0.0, 0.0, -0.004, -0.056, 0.988, 192.0, 0.0, 0.0, 0.0, 0.0, 0.0, 0.0, 0.0, 0.0, 0.0, 1.7151627412176845E9, 0.0, 2024-05-08 13:05:41.217
27.0, 1538.2247016697768, 0.0, 0.0, 0.0, 0.0, 0.0, 0.0, 0.0, -0.004, -0.056, 0.988, 192.0, 0.0, 0.0, 0.0, 0.0, 0.0, 0.0, 0.0, 0.0, 0.0, 1.7151627412177064E9, 0.0, 2024-05-08 13:05:41.217
28.0, 292.986666320165, 0.0, 0.0, 0.0, 0.0, 0.0, 0.0, 0.0, -0.004, -0.056, 0.988, 192.0, 0.0, 0.0, 254.0, 32.0, 30.0, 240.0, 0.0, 0.0, 0.0, 1.715162741217726E9, 0.0, 2024-05-08 13:05:41.217
29.0, -805.8697945916408, 0.0, 0.0, 0.0, 0.0, 0.0, 0.0, 0.0, -0.004, -0.056, 0.988, 192.0, 0.0, 0.0, 0.0, 0.0, 0.0, 0.0, 0.0, 0.0, 0.0, 1.7151627412177465E9, 0.0, 2024-05-08 13:05:41.217
30.0, -459.93184565685345, 0.0, 0.0, 0.0, 0.0, 0.0, 0.0, 0.0, -0.004, -0.056, 0.988, 192.0, 0.0, 0.0, 0.0, 0.0, 0.0, 0.0, 0.0, 0.0, 0.0, 1.7151627412177663E9, 0.0, 2024-05-08 13:05:41.217
31.0, 838.2351205629254, 0.0, 0.0, 0.0, 0.0, 0.0, 0.0, 0.0, -0.004, -0.056, 0.988, 192.0, 0.0, 0.0, 0.0, 0.0, 0.0, 0.0, 0.0, 0.0, 0.0, 1.7151627412177873E9, 0.0, 2024-05-08 13:05:41.217
32.0, 1474.5892852055176, 0.0, 0.0, 0.0, 0.0, 0.0, 0.0, 0.0, -0.004, -0.056, 0.988, 192.0, 0.0, 0.0, 0.0, 0.0, 0.0, 0.0, 0.0, 0.0, 0.0, 1.7151627412178078E9, 0.0, 2024-05-08 13:05:41.217
33.0, 468.17963936086176, 0.0, 0.0, 0.0, 0.0, 0.0, 0.0, 0.0, -0.004, -0.056, 0.988, 192.0, 0.0, 0.0, 0.0, 0.0, 0.0, 0.0, 0.0, 0.0, 0.0, 1.715162741217828E9, 0.0, 2024-05-08 13:05:41.217
34.0, -654.03439450674, 0.0, 0.0, 0.0, 0.0, 0.0, 0.0, 0.0, -0.004, -0.056, 0.988, 192.0, 0.0, 0.0, 0.0, 0.0, 0.0, 0.0, 0.0, 0.0, 0.0, 1.71516274121785E9, 0.0, 2024-05-08 13:05:41.217
35.0, -535.6372041269784, 0.0, 0.0, 0.0, 0.0, 0.0, 0.0, 0.0, -0.004, -0.056, 0.988, 192.0, 0.0, 0.0, 0.0, 0.0, 0.0, 0.0, 0.0, 0.0, 0.0, 1.7151627412178702E9, 0.0, 2024-05-08 13:05:41.217
36.0, 562.1687247954279, 0.0, 0.0, 0.0, 0.0, 0.0, 0.0, 0.0, -0.004, -0.056, 0.988, 192.0, 0.0, 0.0, 0.0, 0.0, 0.0, 0.0, 0.0, 0.0, 0.0, 1.7151627412178903E9, 0.0, 2024-05-08 13:05:41.217
37.0, 1039.5796346163315, 0.0, 0.0, 0.0, 0.0, 0.0, 0.0, 0.0, -0.004, -0.056, 0.988, 192.0, 0.0, 0.0, 0.0, 0.0, 0.0, 0.0, 0.0, 0.0, 0.0, 1.71516274121791E9, 0.0, 2024-05-08 13:05:41.217
38.0, -190.23569705911842, 0.0, 0.0, 0.0, 0.0, 0.0, 0.0, 0.0, -0.004, -0.056, 0.99, 192.0, 255.0, 224.0, 254.0, 64.0, 30.0, 240.0, 0.0, 0.0, 0.0, 1.7151627412179296E9, 0.0, 2024-05-08 13:05:41.217
39.0, -1324.8102456105048, 0.0, 0.0, 0.0, 0.0, 0.0, 0.0, 0.0, -0.004, -0.056, 0.99, 192.0, 0.0, 0.0, 0.0, 0.0, 0.0, 0.0, 0.0, 0.0, 0.0, 1.7151627412179499E9, 0.0, 2024-05-08 13:05:41.217
40.0, -962.4661162455221, 0.0, 0.0, 0.0, 0.0, 0.0, 0.0, 0.0, -0.004, -0.056, 0.99, 192.0, 0.0, 0.0, 0.0, 0.0, 0.0, 0.0, 0.0, 0.0, 0.0, 1.715162741217973E9, 0.0, 2024-05-08 13:05:41.217
41.0, 170.27558926052922, 0.0, 0.0, 0.0, 0.0, 0.0, 0.0, 0.0, -0.004, -0.056, 0.99, 192.0, 0.0, 0.0, 0.0, 0.0, 0.0, 0.0, 0.0, 0.0, 0.0, 1.7151627412179985E9, 0.0, 2024-05-08 13:05:41.217
42.0, 520.3486109195484, 0.0, 0.0, 0.0, 0.0, 0.0, 0.0, 0.0, -0.004, -0.056, 0.99, 192.0, 0.0, 0.0, 0.0, 0.0, 0.0, 0.0, 0.0, 0.0, 0.0, 1.715162741218019E9, 0.0, 2024-05-08 13:05:41.218
43.0, -640.3104234111814, 0.0, 0.0, 0.0, 0.0, 0.0, 0.0, 0.0, -0.004, -0.056, 0.99, 192.0, 0.0, 0.0, 0.0, 0.0, 0.0, 0.0, 0.0, 0.0, 0.0, 1.7151627412180424E9, 0.0, 2024-05-08 13:05:41.218
44.0, -1880.0946331136984, 0.0, 0.0, 0.0, 0.0, 0.0, 0.0, 0.0, -0.004, -0.056, 0.99, 192.0, 0.0, 0.0, 0.0, 0.0, 0.0, 0.0, 0.0, 0.0, 0.0, 1.715162741218074E9, 0.0, 2024-05-08 13:05:41.218
45.0, -1755.3495473086296, 0.0, 0.0, 0.0, 0.0, 0.0, 0.0, 0.0, -0.004, -0.056, 0.99, 192.0, 0.0, 0.0, 0.0, 0.0, 0.0, 0.0, 0.0, 0.0, 0.0, 1.715162741218094E9, 0.0, 2024-05-08 13:05:41.218
46.0, -607.7886352287096, 0.0, 0.0, 0.0, 0.0, 0.0, 0.0, 0.0, -0.004, -0.056, 0.99, 192.0, 0.0, 0.0, 0.0, 0.0, 0.0, 0.0, 0.0, 0.0, 0.0, 1.7151627412181137E9, 0.0, 2024-05-08 13:05:41.218
47.0, -16.227366474552927, 0.0, 0.0, 0.0, 0.0, 0.0, 0.0, 0.0, -0.004, -0.056, 0.99, 192.0, 0.0, 0.0, 0.0, 0.0, 0.0, 0.0, 0.0, 0.0, 0.0, 1.715162741218135E9, 0.0, 2024-05-08 13:05:41.218
48.0, -1223.266270550045, 0.0, 0.0, 0.0, 0.0, 0.0, 0.0, 0.0, -0.004, -0.05, 0.992, 192.0, 255.0, 224.0, 254.0, 112.0, 31.0, 0.0, 0.0, 0.0, 0.0, 1.715162741218155E9, 0.0, 2024-05-08 13:05:41.218
49.0, -2506.144643562394, 0.0, 0.0, 0.0, 0.0, 0.0, 0.0, 0.0, -0.004, -0.05, 0.992, 192.0, 0.0, 0.0, 0.0, 0.0, 0.0, 0.0, 0.0, 0.0, 0.0, 1.7151627412181754E9, 0.0, 2024-05-08 13:05:41.218
50.0, -2372.28004601956, 0.0, 0.0, 0.0, 0.0, 0.0, 0.0, 0.0, -0.004, -0.05, 0.992, 192.0, 0.0, 0.0, 0.0, 0.0, 0.0, 0.0, 0.0, 0.0, 0.0, 1.7151627412181947E9, 0.0, 2024-05-08 13:05:41.218
51.0, -1201.3392092393888, 0.0, 0.0, 0.0, 0.0, 0.0, 0.0, 0.0, -0.004, -0.05, 0.992, 192.0, 0.0, 0.0, 0.0, 0.0, 0.0, 0.0, 0.0, 0.0, 0.0, 1.7151627412182145E9, 0.0, 2024-05-08 13:05:41.218
52.0, -692.5911536921446, 0.0, 0.0, 0.0, 0.0, 0.0, 0.0, 0.0, -0.004, -0.05, 0.992, 192.0, 0.0, 0.0, 0.0, 0.0, 0.0, 0.0, 0.0, 0.0, 0.0, 1.7151627412182353E9, 0.0, 2024-05-08 13:05:41.218
53.0, -1769.3864428265624, 0.0, 0.0, 0.0, 0.0, 0.0, 0.0, 0.0, -0.004, -0.05, 0.992, 192.0, 0.0, 0.0, 0.0, 0.0, 0.0, 0.0, 0.0, 0.0, 0.0, 1.715162741218256E9, 0.0, 2024-05-08 13:05:41.218
54.0, -2822.1983101604355, 0.0, 0.0, 0.0, 0.0, 0.0, 0.0, 0.0, -0.004, -0.05, 0.992, 192.0, 0.0, 0.0, 0.0, 0.0, 0.0, 0.0, 0.0, 0.0, 0.0, 1.715162741218278E9, 0.0, 2024-05-08 13:05:41.218
55.0, -2568.7295280372537, 0.0, 0.0, 0.0, 0.0, 0.0, 0.0, 0.0, -0.004, -0.05, 0.992, 192.0, 0.0, 0.0, 0.0, 0.0, 0.0, 0.0, 0.0, 0.0, 0.0, 1.715162741218298E9, 0.0, 2024-05-08 13:05:41.218
56.0, -1424.7448950701828, 0.0, 0.0, 0.0, 0.0, 0.0, 0.0, 0.0, -0.004, -0.05, 0.992, 192.0, 0.0, 0.0, 0.0, 0.0, 0.0, 0.0, 0.0, 0.0, 0.0, 1.715162741218318E9, 0.0, 2024-05-08 13:05:41.218
57.0, -978.0229303864159, 0.0, 0.0, 0.0, 0.0, 0.0, 0.0, 0.0, -0.004, -0.05, 0.992, 192.0, 0.0, 0.0, 0.0, 0.0, 0.0, 0.0, 0.0, 0.0, 0.0, 1.715162741218338E9, 0.0, 2024-05-08 13:05:41.218
58.0, -2106.3389904903165, 0.0, 0.0, 0.0, 0.0, 0.0, 0.0, 0.0, -0.002, -0.052000000000000005, 0.99, 192.0, 255.0, 240.0, 254.0, 96.0, 30.0, 240.0, 0.0, 0.0, 0.0, 1.715162741218358E9, 0.0, 2024-05-08 13:05:41.218
59.0, -3433.4738175241732, 0.0, 0.0, 0.0, 0.0, 0.0, 0.0, 0.0, -0.002, -0.052000000000000005, 0.99, 192.0, 0.0, 0.0, 0.0, 0.0, 0.0, 0.0, 0.0, 0.0, 0.0, 1.7151627412183795E9, 0.0, 2024-05-08 13:05:41.218
60.0, -3277.1233650593003, 0.0, 0.0, 0.0, 0.0, 0.0, 0.0, 0.0, -0.002, -0.052000000000000005, 0.99, 192.0, 0.0, 0.0, 0.0, 0.0, 0.0, 0.0, 0.0, 0.0, 0.0, 1.7151627412184014E9, 0.0, 2024-05-08 13:05:41.218
61.0, -1981.258628518418, 0.0, 0.0, 0.0, 0.0, 0.0, 0.0, 0.0, -0.002, -0.052000000000000005, 0.99, 192.0, 0.0, 0.0, 0.0, 0.0, 0.0, 0.0, 0.0, 0.0, 0.0, 1.715162741218434E9, 0.0, 2024-05-08 13:05:41.218
62.0, -1414.1054647094566, 0.0, 0.0, 0.0, 0.0, 0.0, 0.0, 0.0, -0.002, -0.052000000000000005, 0.99, 192.0, 0.0, 0.0, 0.0, 0.0, 0.0, 0.0, 0.0, 0.0, 0.0, 1.7151627412184536E9, 0.0, 2024-05-08 13:05:41.218
63.0, -2579.5254206091668, 0.0, 0.0, 0.0, 0.0, 0.0, 0.0, 0.0, -0.002, -0.052000000000000005, 0.99, 192.0, 0.0, 0.0, 0.0, 0.0, 0.0, 0.0, 0.0, 0.0, 0.0, 1.7151627412184732E9, 0.0, 2024-05-08 13:05:41.218
64.0, -3688.574276992593, 0.0, 0.0, 0.0, 0.0, 0.0, 0.0, 0.0, -0.002, -0.052000000000000005, 0.99, 192.0, 0.0, 0.0, 0.0, 0.0, 0.0, 0.0, 0.0, 0.0, 0.0, 1.7151627412184927E9, 0.0, 2024-05-08 13:05:41.218
65.0, -3538.5270164641165, 0.0, 0.0, 0.0, 0.0, 0.0, 0.0, 0.0, -0.002, -0.052000000000000005, 0.99, 192.0, 0.0, 0.0, 0.0, 0.0, 0.0, 0.0, 0.0, 0.0, 0.0, 1.715162741218516E9, 0.0, 2024-05-08 13:05:41.218
66.0, -2309.2481266555938, 0.0, 0.0, 0.0, 0.0, 0.0, 0.0, 0.0, -0.002, -0.052000000000000005, 0.99, 192.0, 0.0, 0.0, 0.0, 0.0, 0.0, 0.0, 0.0, 0.0, 0.0, 1.715162741218536E9, 0.0, 2024-05-08 13:05:41.218
67.0, -1789.4359576029728, 0.0, 0.0, 0.0, 0.0, 0.0, 0.0, 0.0, -0.002, -0.052000000000000005, 0.99, 192.0, 0.0, 0.0, 0.0, 0.0, 0.0, 0.0, 0.0, 0.0, 0.0, 1.7151627412185571E9, 0.0, 2024-05-08 13:05:41.218
68.0, -3022.7381614134506, 0.0, 0.0, 0.0, 0.0, 0.0, 0.0, 0.0, -0.002, -0.052000000000000005, 0.99, 192.0, 0.0, 0.0, 254.0, 96.0, 30.0, 208.0, 0.0, 0.0, 0.0, 1.715162741218578E9, 0.0, 2024-05-08 13:05:41.218
69.0, -4260.89069377073, 0.0, 0.0, 0.0, 0.0, 0.0, 0.0, 0.0, -0.002, -0.052000000000000005, 0.99, 192.0, 0.0, 0.0, 0.0, 0.0, 0.0, 0.0, 0.0, 0.0, 0.0, 1.7151627412185986E9, 0.0, 2024-05-08 13:05:41.218
70.0, -4108.272982629894, 0.0, 0.0, 0.0, 0.0, 0.0, 0.0, 0.0, -0.002, -0.052000000000000005, 0.99, 192.0, 0.0, 0.0, 0.0, 0.0, 0.0, 0.0, 0.0, 0.0, 0.0, 1.7151627412186182E9, 0.0, 2024-05-08 13:05:41.218
71.0, -2930.9618986799596, 0.0, 0.0, 0.0, 0.0, 0.0, 0.0, 0.0, -0.002, -0.052000000000000005, 0.99, 192.0, 0.0, 0.0, 0.0, 0.0, 0.0, 0.0, 0.0, 0.0, 0.0, 1.7151627412186427E9, 0.0, 2024-05-08 13:05:41.218
72.0, -2356.700880134211, 0.0, 0.0, 0.0, 0.0, 0.0, 0.0, 0.0, -0.002, -0.052000000000000005, 0.99, 192.0, 0.0, 0.0, 0.0, 0.0, 0.0, 0.0, 0.0, 0.0, 0.0, 1.715162741218662E9, 0.0, 2024-05-08 13:05:41.218
73.0, -3421.7167999406815, 0.0, 0.0, 0.0, 0.0, 0.0, 0.0, 0.0, -0.002, -0.052000000000000005, 0.99, 192.0, 0.0, 0.0, 0.0, 0.0, 0.0, 0.0, 0.0, 0.0, 0.0, 1.7151627412186818E9, 0.0, 2024-05-08 13:05:41.218
74.0, -4659.019966008659, 0.0, 0.0, 0.0, 0.0, 0.0, 0.0, 0.0, -0.002, -0.052000000000000005, 0.99, 192.0, 0.0, 0.0, 0.0, 0.0, 0.0, 0.0, 0.0, 0.0, 0.0, 1.7151627412187004E9, 0.0, 2024-05-08 13:05:41.218
75.0, -4400.320875682935, 0.0, 0.0, 0.0, 0.0, 0.0, 0.0, 0.0, -0.002, -0.052000000000000005, 0.99, 192.0, 0.0, 0.0, 0.0, 0.0, 0.0, 0.0, 0.0, 0.0, 0.0, 1.7151627412187183E9, 0.0, 2024-05-08 13:05:41.218
76.0, -3057.0257374078915, 0.0, 0.0, 0.0, 0.0, 0.0, 0.0, 0.0, -0.002, -0.052000000000000005, 0.99, 192.0, 0.0, 0.0, 0.0, 0.0, 0.0, 0.0, 0.0, 0.0, 0.0, 1.7151627412187357E9, 0.0, 2024-05-08 13:05:41.218
77.0, -2560.526437822156, 0.0, 0.0, 0.0, 0.0, 0.0, 0.0, 0.0, -0.002, -0.052000000000000005, 0.99, 192.0, 0.0, 0.0, 0.0, 0.0, 0.0, 0.0, 0.0, 0.0, 0.0, 1.7151627412187526E9, 0.0, 2024-05-08 13:05:41.218
78.0, -3638.4169624348838, 0.0, 0.0, 0.0, 0.0, 0.0, 0.0, 0.0, -0.002, -0.05, 0.99, 192.0, 255.0, 240.0, 254.0, 112.0, 30.0, 240.0, 0.0, 0.0, 0.0, 1.7151627412187696E9, 0.0, 2024-05-08 13:05:41.218
79.0, -4775.673720320907, 0.0, 0.0, 0.0, 0.0, 0.0, 0.0, 0.0, -0.002, -0.05, 0.99, 192.0, 0.0, 0.0, 0.0, 0.0, 0.0, 0.0, 0.0, 0.0, 0.0, 1.7151627412188077E9, 0.0, 2024-05-08 13:05:41.218
80.0, -4488.945542448228, 0.0, 0.0, 0.0, 0.0, 0.0, 0.0, 0.0, -0.002, -0.05, 0.99, 192.0, 0.0, 0.0, 0.0, 0.0, 0.0, 0.0, 0.0, 0.0, 0.0, 1.7151627412188349E9, 0.0, 2024-05-08 13:05:41.218
81.0, -3192.7455297405163, 0.0, 0.0, 0.0, 0.0, 0.0, 0.0, 0.0, -0.002, -0.05, 0.99, 192.0, 0.0, 0.0, 0.0, 0.0, 0.0, 0.0, 0.0, 0.0, 0.0, 1.7151627412188592E9, 0.0, 2024-05-08 13:05:41.218
82.0, -2531.0444868856057, 0.0, 0.0, 0.0, 0.0, 0.0, 0.0, 0.0, -0.002, -0.05, 0.99, 192.0, 0.0, 0.0, 0.0, 0.0, 0.0, 0.0, 0.0, 0.0, 0.0, 1.715162741218878E9, 0.0, 2024-05-08 13:05:41.218
83.0, -3585.8680112204565, 0.0, 0.0, 0.0, 0.0, 0.0, 0.0, 0.0, -0.002, -0.05, 0.99, 192.0, 0.0, 0.0, 0.0, 0.0, 0.0, 0.0, 0.0, 0.0, 0.0, 1.7151627412188957E9, 0.0, 2024-05-08 13:05:41.218
84.0, -4791.1858309728905, 0.0, 0.0, 0.0, 0.0, 0.0, 0.0, 0.0, -0.002, -0.05, 0.99, 192.0, 0.0, 0.0, 0.0, 0.0, 0.0, 0.0, 0.0, 0.0, 0.0, 1.7151627412189407E9, 0.0, 2024-05-08 13:05:41.218
85.0, -4583.694587194274, 0.0, 0.0, 0.0, 0.0, 0.0, 0.0, 0.0, -0.002, -0.05, 0.99, 192.0, 0.0, 0.0, 0.0, 0.0, 0.0, 0.0, 0.0, 0.0, 0.0, 1.7151627412189653E9, 0.0, 2024-05-08 13:05:41.218
86.0, -3269.389661477764, 0.0, 0.0, 0.0, 0.0, 0.0, 0.0, 0.0, -0.002, -0.05, 0.99, 192.0, 0.0, 0.0, 0.0, 0.0, 0.0, 0.0, 0.0, 0.0, 0.0, 1.715162741218987E9, 0.0, 2024-05-08 13:05:41.218
87.0, -2657.3318430580907, 0.0, 0.0, 0.0, 0.0, 0.0, 0.0, 0.0, -0.002, -0.05, 0.99, 192.0, 0.0, 0.0, 0.0, 0.0, 0.0, 0.0, 0.0, 0.0, 0.0, 1.715162741219005E9, 0.0, 2024-05-08 13:05:41.219
88.0, -3724.3817716099948, 0.0, 0.0, 0.0, 0.0, 0.0, 0.0, 0.0, -0.002, -0.05, 0.99, 192.0, 0.0, 0.0, 254.0, 96.0, 31.0, 0.0, 0.0, 0.0, 0.0, 1.7151627412190273E9, 0.0, 2024-05-08 13:05:41.219
89.0, -4800.953543299859, 0.0, 0.0, 0.0, 0.0, 0.0, 0.0, 0.0, -0.002, -0.05, 0.99, 192.0, 0.0, 0.0, 0.0, 0.0, 0.0, 0.0, 0.0, 0.0, 0.0, 1.7151627412190468E9, 0.0, 2024-05-08 13:05:41.219
90.0, -4456.64727171031, 0.0, 0.0, 0.0, 0.0, 0.0, 0.0, 0.0, -0.002, -0.05, 0.99, 192.0, 0.0, 0.0, 0.0, 0.0, 0.0, 0.0, 0.0, 0.0, 0.0, 1.7151627412190652E9, 0.0, 2024-05-08 13:05:41.219
91.0, -3438.0112216486004, 0.0, 0.0, 0.0, 0.0, 0.0, 0.0, 0.0, -0.002, -0.05, 0.99, 192.0, 0.0, 0.0, 0.0, 0.0, 0.0, 0.0, 0.0, 0.0, 0.0, 1.7151627412190917E9, 0.0, 2024-05-08 13:05:41.219
92.0, -2893.1427470615804, 0.0, 0.0, 0.0, 0.0, 0.0, 0.0, 0.0, -0.002, -0.05, 0.99, 192.0, 0.0, 0.0, 0.0, 0.0, 0.0, 0.0, 0.0, 0.0, 0.0, 1.7151627412191126E9, 0.0, 2024-05-08 13:05:41.219
93.0, -3894.5008986593366, 0.0, 0.0, 0.0, 0.0, 0.0, 0.0, 0.0, -0.002, -0.05, 0.99, 192.0, 0.0, 0.0, 0.0, 0.0, 0.0, 0.0, 0.0, 0.0, 0.0, 1.7151627412191336E9, 0.0, 2024-05-08 13:05:41.219
94.0, -5129.278317603865, 0.0, 0.0, 0.0, 0.0, 0.0, 0.0, 0.0, -0.002, -0.05, 0.99, 192.0, 0.0, 0.0, 0.0, 0.0, 0.0, 0.0, 0.0, 0.0, 0.0, 1.7151627412191513E9, 0.0, 2024-05-08 13:05:41.219
95.0, -4888.01358795328, 0.0, 0.0, 0.0, 0.0, 0.0, 0.0, 0.0, -0.002, -0.05, 0.99, 192.0, 0.0, 0.0, 0.0, 0.0, 0.0, 0.0, 0.0, 0.0, 0.0, 1.715162741219169E9, 0.0, 2024-05-08 13:05:41.219
96.0, -3644.630747393459, 0.0, 0.0, 0.0, 0.0, 0.0, 0.0, 0.0, -0.002, -0.05, 0.99, 192.0, 0.0, 0.0, 0.0, 0.0, 0.0, 0.0, 0.0, 0.0, 0.0, 1.7151627412192361E9, 0.0, 2024-05-08 13:05:41.219
97.0, -2975.7771463128506, 0.0, 0.0, 0.0, 0.0, 0.0, 0.0, 0.0, -0.002, -0.05, 0.99, 192.0, 0.0, 0.0, 0.0, 0.0, 0.0, 0.0, 0.0, 0.0, 0.0, 1.7151627412192545E9, 0.0, 2024-05-08 13:05:41.219
98.0, -4021.9505455434974, 0.0, 0.0, 0.0, 0.0, 0.0, 0.0, 0.0, 0.008, -0.048, 0.992, 192.0, 0.0, 64.0, 254.0, 128.0, 31.0, 0.0, 0.0, 0.0, 0.0, 1.7151627412192729E9, 0.0, 2024-05-08 13:05:41.219
99.0, -5170.874914035191, 0.0, 0.0, 0.0, 0.0, 0.0, 0.0, 0.0, 0.008, -0.048, 0.992, 192.0, 0.0, 0.0, 0.0, 0.0, 0.0, 0.0, 0.0, 0.0, 0.0, 1.7151627412192917E9, 0.0, 2024-05-08 13:05:41.219
100.0, -4821.204223776367, 0.0, 0.0, 0.0, 0.0, 0.0, 0.0, 0.0, 0.008, -0.048, 0.992, 192.0, 0.0, 0.0, 0.0, 0.0, 0.0, 0.0, 0.0, 0.0, 0.0, 1.7151627412193105E9, 0.0, 2024-05-08 13:05:41.219
101.0, -3500.7525683346475, 0.0, 0.0, 0.0, 0.0, 0.0, 0.0, 0.0, 0.008, -0.048, 0.992, 192.0, 0.0, 0.0, 0.0, 0.0, 0.0, 0.0, 0.0, 0.0, 0.0, 1.7151627412193289E9, 0.0, 2024-05-08 13:05:41.219
102.0, -3001.6381146476406, 0.0, 0.0, 0.0, 0.0, 0.0, 0.0, 0.0, 0.008, -0.048, 0.992, 192.0, 0.0, 0.0, 0.0, 0.0, 0.0, 0.0, 0.0, 0.0, 0.0, 1.7151627412193463E9, 0.0, 2024-05-08 13:05:41.219
103.0, -4161.626596644712, 0.0, 0.0, 0.0, 0.0, 0.0, 0.0, 0.0, 0.008, -0.048, 0.992, 192.0, 0.0, 0.0, 0.0, 0.0, 0.0, 0.0, 0.0, 0.0, 0.0, 1.715162741219364E9, 0.0, 2024-05-08 13:05:41.219
104.0, -5273.38001410723, 0.0, 0.0, 0.0, 0.0, 0.0, 0.0, 0.0, 0.008, -0.048, 0.992, 192.0, 0.0, 0.0, 0.0, 0.0, 0.0, 0.0, 0.0, 0.0, 0.0, 1.7151627412193816E9, 0.0, 2024-05-08 13:05:41.219
105.0, -5159.386117385164, 0.0, 0.0, 0.0, 0.0, 0.0, 0.0, 0.0, 0.008, -0.048, 0.992, 192.0, 0.0, 0.0, 0.0, 0.0, 0.0, 0.0, 0.0, 0.0, 0.0, 1.7151627412193997E9, 0.0, 2024-05-08 13:05:41.219
106.0, -3787.0337113182204, 0.0, 0.0, 0.0, 0.0, 0.0, 0.0, 0.0, 0.008, -0.048, 0.992, 192.0, 0.0, 0.0, 0.0, 0.0, 0.0, 0.0, 0.0, 0.0, 0.0, 1.715162741219419E9, 0.0, 2024-05-08 13:05:41.219
107.0, -3205.3742653577647, 0.0, 0.0, 0.0, 0.0, 0.0, 0.0, 0.0, 0.008, -0.048, 0.992, 192.0, 0.0, 0.0, 0.0, 0.0, 0.0, 0.0, 0.0, 0.0, 0.0, 1.7151627412194376E9, 0.0, 2024-05-08 13:05:41.219
108.0, -4339.904110420241, 0.0, 0.0, 0.0, 0.0, 0.0, 0.0, 0.0, 0.004, -0.048, 0.988, 192.0, 0.0, 32.0, 254.0, 128.0, 30.0, 224.0, 0.0, 0.0, 0.0, 1.7151627412194602E9, 0.0, 2024-05-08 13:05:41.219
109.0, -5540.796284770523, 0.0, 0.0, 0.0, 0.0, 0.0, 0.0, 0.0, 0.004, -0.048, 0.988, 192.0, 0.0, 0.0, 0.0, 0.0, 0.0, 0.0, 0.0, 0.0, 0.0, 1.715162741219484E9, 0.0, 2024-05-08 13:05:41.219
110.0, -5322.442093186628, 0.0, 0.0, 0.0, 0.0, 0.0, 0.0, 0.0, 0.004, -0.048, 0.988, 192.0, 0.0, 0.0, 0.0, 0.0, 0.0, 0.0, 0.0, 0.0, 0.0, 1.715162741219506E9, 0.0, 2024-05-08 13:05:41.219
111.0, -3962.584312270202, 0.0, 0.0, 0.0, 0.0, 0.0, 0.0, 0.0, 0.004, -0.048, 0.988, 192.0, 0.0, 0.0, 0.0, 0.0, 0.0, 0.0, 0.0, 0.0, 0.0, 1.715162741219529E9, 0.0, 2024-05-08 13:05:41.219
112.0, -3445.4320008077625, 0.0, 0.0, 0.0, 0.0, 0.0, 0.0, 0.0, 0.004, -0.048, 0.988, 192.0, 0.0, 0.0, 0.0, 0.0, 0.0, 0.0, 0.0, 0.0, 0.0, 1.715162741219551E9, 0.0, 2024-05-08 13:05:41.219
113.0, -4459.21772232267, 0.0, 0.0, 0.0, 0.0, 0.0, 0.0, 0.0, 0.004, -0.048, 0.988, 192.0, 0.0, 0.0, 0.0, 0.0, 0.0, 0.0, 0.0, 0.0, 0.0, 1.7151627412195764E9, 0.0, 2024-05-08 13:05:41.219
114.0, -5617.909803141332, 0.0, 0.0, 0.0, 0.0, 0.0, 0.0, 0.0, 0.004, -0.048, 0.988, 192.0, 0.0, 0.0, 0.0, 0.0, 0.0, 0.0, 0.0, 0.0, 0.0, 1.71516274121962E9, 0.0, 2024-05-08 13:05:41.219
115.0, -5549.915796508289, 0.0, 0.0, 0.0, 0.0, 0.0, 0.0, 0.0, 0.004, -0.048, 0.988, 192.0, 0.0, 0.0, 0.0, 0.0, 0.0, 0.0, 0.0, 0.0, 0.0, 1.7151627412196503E9, 0.0, 2024-05-08 13:05:41.219
116.0, -4329.66701145971, 0.0, 0.0, 0.0, 0.0, 0.0, 0.0, 0.0, 0.004, -0.048, 0.988, 192.0, 0.0, 0.0, 0.0, 0.0, 0.0, 0.0, 0.0, 0.0, 0.0, 1.715162741219674E9, 0.0, 2024-05-08 13:05:41.219
117.0, -3545.0760775895214, 0.0, 0.0, 0.0, 0.0, 0.0, 0.0, 0.0, 0.004, -0.048, 0.988, 192.0, 0.0, 0.0, 0.0, 0.0, 0.0, 0.0, 0.0, 0.0, 0.0, 1.715162741219702E9, 0.0, 2024-05-08 13:05:41.219
118.0, -4409.39568393179, 0.0, 0.0, 0.0, 0.0, 0.0, 0.0, 0.0, -0.002, -0.044, 0.988, 192.0, 255.0, 240.0, 254.0, 160.0, 30.0, 224.0, 0.0, 0.0, 0.0, 1.715162741219729E9, 0.0, 2024-05-08 13:05:41.219
119.0, -5573.496886908637, 0.0, 0.0, 0.0, 0.0, 0.0, 0.0, 0.0, -0.002, -0.044, 0.988, 192.0, 0.0, 0.0, 0.0, 0.0, 0.0, 0.0, 0.0, 0.0, 0.0, 1.7151627412197576E9, 0.0, 2024-05-08 13:05:41.219
120.0, -5224.384990261196, 0.0, 0.0, 0.0, 0.0, 0.0, 0.0, 0.0, -0.002, -0.044, 0.988, 192.0, 0.0, 0.0, 0.0, 0.0, 0.0, 0.0, 0.0, 0.0, 0.0, 1.7151627412197824E9, 0.0, 2024-05-08 13:05:41.219
121.0, -4005.700827324489, 0.0, 0.0, 0.0, 0.0, 0.0, 0.0, 0.0, -0.002, -0.044, 0.988, 192.0, 0.0, 0.0, 0.0, 0.0, 0.0, 0.0, 0.0, 0.0, 0.0, 1.7151627412198057E9, 0.0, 2024-05-08 13:05:41.219
122.0, -3607.3927411309173, 0.0, 0.0, 0.0, 0.0, 0.0, 0.0, 0.0, -0.002, -0.044, 0.988, 192.0, 0.0, 0.0, 0.0, 0.0, 0.0, 0.0, 0.0, 0.0, 0.0, 1.715162741696572E9, 0.0, 2024-05-08 13:05:41.696
123.0, -4655.77896306264, 0.0, 0.0, 0.0, 0.0, 0.0, 0.0, 0.0, -0.002, -0.044, 0.988, 192.0, 0.0, 0.0, 0.0, 0.0, 0.0, 0.0, 0.0, 0.0, 0.0, 1.715162741696646E9, 0.0, 2024-05-08 13:05:41.696
124.0, -5871.847971898076, 0.0, 0.0, 0.0, 0.0, 0.0, 0.0, 0.0, -0.002, -0.044, 0.988, 192.0, 0.0, 0.0, 0.0, 0.0, 0.0, 0.0, 0.0, 0.0, 0.0, 1.7151627416966796E9, 0.0, 2024-05-08 13:05:41.696
125.0, -5674.50442010217, 0.0, 0.0, 0.0, 0.0, 0.0, 0.0, 0.0, -0.002, -0.044, 0.988, 192.0, 0.0, 0.0, 0.0, 0.0, 0.0, 0.0, 0.0, 0.0, 0.0, 1.7151627416967618E9, 0.0, 2024-05-08 13:05:41.696
126.0, -4252.732307044543, 0.0, 0.0, 0.0, 0.0, 0.0, 0.0, 0.0, -0.002, -0.044, 0.988, 192.0, 0.0, 0.0, 0.0, 0.0, 0.0, 0.0, 0.0, 0.0, 0.0, 1.7151627416967847E9, 0.0, 2024-05-08 13:05:41.696
127.0, -3439.1958641047318, 0.0, 0.0, 0.0, 0.0, 0.0, 0.0, 0.0, -0.002, -0.044, 0.988, 192.0, 0.0, 0.0, 0.0, 0.0, 0.0, 0.0, 0.0, 0.0, 0.0, 1.7151627416968048E9, 0.0, 2024-05-08 13:05:41.696
128.0, -4401.594925116888, 0.0, 0.0, 0.0, 0.0, 0.0, 0.0, 0.0, -0.004, -0.046, 0.992, 192.0, 255.0, 224.0, 254.0, 144.0, 31.0, 0.0, 0.0, 0.0, 0.0, 1.7151627416968253E9, 0.0, 2024-05-08 13:05:41.696
129.0, -5700.275981459139, 0.0, 0.0, 0.0, 0.0, 0.0, 0.0, 0.0, -0.004, -0.046, 0.992, 192.0, 0.0, 0.0, 0.0, 0.0, 0.0, 0.0, 0.0, 0.0, 0.0, 1.7151627416968467E9, 0.0, 2024-05-08 13:05:41.696
130.0, -5562.38806991435, 0.0, 0.0, 0.0, 0.0, 0.0, 0.0, 0.0, -0.004, -0.046, 0.992, 192.0, 0.0, 0.0, 0.0, 0.0, 0.0, 0.0, 0.0, 0.0, 0.0, 1.715162741696867E9, 0.0, 2024-05-08 13:05:41.696
131.0, -4179.418585231136, 0.0, 0.0, 0.0, 0.0, 0.0, 0.0, 0.0, -0.004, -0.046, 0.992, 192.0, 0.0, 0.0, 0.0, 0.0, 0.0, 0.0, 0.0, 0.0, 0.0, 1.715162741696947E9, 0.0, 2024-05-08 13:05:41.696
132.0, -3392.4360147042294, 0.0, 0.0, 0.0, 0.0, 0.0, 0.0, 0.0, -0.004, -0.046, 0.992, 192.0, 0.0, 0.0, 0.0, 0.0, 0.0, 0.0, 0.0, 0.0, 0.0, 1.7151627416969695E9, 0.0, 2024-05-08 13:05:41.696
133.0, -4278.347406190325, 0.0, 0.0, 0.0, 0.0, 0.0, 0.0, 0.0, -0.004, -0.046, 0.992, 192.0, 0.0, 0.0, 0.0, 0.0, 0.0, 0.0, 0.0, 0.0, 0.0, 1.7151627416969907E9, 0.0, 2024-05-08 13:05:41.696
134.0, -5402.729559270091, 0.0, 0.0, 0.0, 0.0, 0.0, 0.0, 0.0, -0.004, -0.046, 0.992, 192.0, 0.0, 0.0, 0.0, 0.0, 0.0, 0.0, 0.0, 0.0, 0.0, 1.7151627416970127E9, 0.0, 2024-05-08 13:05:41.697
135.0, -5275.592836808305, 0.0, 0.0, 0.0, 0.0, 0.0, 0.0, 0.0, -0.004, -0.046, 0.992, 192.0, 0.0, 0.0, 0.0, 0.0, 0.0, 0.0, 0.0, 0.0, 0.0, 1.7151627416970363E9, 0.0, 2024-05-08 13:05:41.697
136.0, -4028.9242898135535, 0.0, 0.0, 0.0, 0.0, 0.0, 0.0, 0.0, -0.004, -0.046, 0.992, 192.0, 0.0, 0.0, 0.0, 0.0, 0.0, 0.0, 0.0, 0.0, 0.0, 1.7151627416970549E9, 0.0, 2024-05-08 13:05:41.697
137.0, -3353.409868885263, 0.0, 0.0, 0.0, 0.0, 0.0, 0.0, 0.0, -0.004, -0.046, 0.992, 192.0, 0.0, 0.0, 0.0, 0.0, 0.0, 0.0, 0.0, 0.0, 0.0, 1.7151627416970744E9, 0.0, 2024-05-08 13:05:41.697
138.0, -4292.5631156639, 0.0, 0.0, 0.0, 0.0, 0.0, 0.0, 0.0, -0.004, -0.046, 0.992, 192.0, 0.0, 0.0, 254.0, 128.0, 31.0, 16.0, 0.0, 0.0, 0.0, 1.7151627416970923E9, 0.0, 2024-05-08 13:05:41.697
139.0, -5431.853882295356, 0.0, 0.0, 0.0, 0.0, 0.0, 0.0, 0.0, -0.004, -0.046, 0.992, 192.0, 0.0, 0.0, 0.0, 0.0, 0.0, 0.0, 0.0, 0.0, 0.0, 1.7151627416971157E9, 0.0, 2024-05-08 13:05:41.697
140.0, -5096.600067210205, 0.0, 0.0, 0.0, 0.0, 0.0, 0.0, 0.0, -0.004, -0.046, 0.992, 192.0, 0.0, 0.0, 0.0, 0.0, 0.0, 0.0, 0.0, 0.0, 0.0, 1.7151627416971343E9, 0.0, 2024-05-08 13:05:41.697
141.0, -3991.9098009955646, 0.0, 0.0, 0.0, 0.0, 0.0, 0.0, 0.0, -0.004, -0.046, 0.992, 192.0, 0.0, 0.0, 0.0, 0.0, 0.0, 0.0, 0.0, 0.0, 0.0, 1.7151627416971543E9, 0.0, 2024-05-08 13:05:41.697
142.0, -3308.8851939302917, 0.0, 0.0, 0.0, 0.0, 0.0, 0.0, 0.0, -0.004, -0.046, 0.992, 192.0, 0.0, 0.0, 0.0, 0.0, 0.0, 0.0, 0.0, 0.0, 0.0, 1.715162741697174E9, 0.0, 2024-05-08 13:05:41.697
143.0, -4226.089027653817, 0.0, 0.0, 0.0, 0.0, 0.0, 0.0, 0.0, -0.004, -0.046, 0.992, 192.0, 0.0, 0.0, 0.0, 0.0, 0.0, 0.0, 0.0, 0.0, 0.0, 1.7151627416971939E9, 0.0, 2024-05-08 13:05:41.697
144.0, -5602.665913422813, 0.0, 0.0, 0.0, 0.0, 0.0, 0.0, 0.0, -0.004, -0.046, 0.992, 192.0, 0.0, 0.0, 0.0, 0.0, 0.0, 0.0, 0.0, 0.0, 0.0, 1.715162741697214E9, 0.0, 2024-05-08 13:05:41.697
145.0, -5500.540793006515, 0.0, 0.0, 0.0, 0.0, 0.0, 0.0, 0.0, -0.004, -0.046, 0.992, 192.0, 0.0, 0.0, 0.0, 0.0, 0.0, 0.0, 0.0, 0.0, 0.0, 1.7151627416972337E9, 0.0, 2024-05-08 13:05:41.697
146.0, -4105.970752950997, 0.0, 0.0, 0.0, 0.0, 0.0, 0.0, 0.0, -0.004, -0.046, 0.992, 192.0, 0.0, 0.0, 0.0, 0.0, 0.0, 0.0, 0.0, 0.0, 0.0, 1.7151627416972563E9, 0.0, 2024-05-08 13:05:41.697
147.0, -3222.2498324215217, 0.0, 0.0, 0.0, 0.0, 0.0, 0.0, 0.0, -0.004, -0.046, 0.992, 192.0, 0.0, 0.0, 0.0, 0.0, 0.0, 0.0, 0.0, 0.0, 0.0, 1.715162741697275E9, 0.0, 2024-05-08 13:05:41.697
148.0, -4142.806427813342, 0.0, 0.0, 0.0, 0.0, 0.0, 0.0, 0.0, -0.004, -0.046, 0.992, 192.0, 0.0, 0.0, 254.0, 112.0, 31.0, 48.0, 0.0, 0.0, 0.0, 1.7151627416973243E9, 0.0, 2024-05-08 13:05:41.697
149.0, -5423.471978124617, 0.0, 0.0, 0.0, 0.0, 0.0, 0.0, 0.0, -0.004, -0.046, 0.992, 192.0, 0.0, 0.0, 0.0, 0.0, 0.0, 0.0, 0.0, 0.0, 0.0, 1.715162741697344E9, 0.0, 2024-05-08 13:05:41.697
150.0, -5180.150887984144, 0.0, 0.0, 0.0, 0.0, 0.0, 0.0, 0.0, -0.004, -0.046, 0.992, 192.0, 0.0, 0.0, 0.0, 0.0, 0.0, 0.0, 0.0, 0.0, 0.0, 1.715162741697363E9, 0.0, 2024-05-08 13:05:41.697
151.0, -3700.532460276182, 0.0, 0.0, 0.0, 0.0, 0.0, 0.0, 0.0, -0.004, -0.046, 0.992, 192.0, 0.0, 0.0, 0.0, 0.0, 0.0, 0.0, 0.0, 0.0, 0.0, 1.7151627416973815E9, 0.0, 2024-05-08 13:05:41.697
152.0, -3114.469720658031, 0.0, 0.0, 0.0, 0.0, 0.0, 0.0, 0.0, -0.004, -0.046, 0.992, 192.0, 0.0, 0.0, 0.0, 0.0, 0.0, 0.0, 0.0, 0.0, 0.0, 1.715162741697403E9, 0.0, 2024-05-08 13:05:41.697
153.0, -4045.129304543651, 0.0, 0.0, 0.0, 0.0, 0.0, 0.0, 0.0, -0.004, -0.046, 0.992, 192.0, 0.0, 0.0, 0.0, 0.0, 0.0, 0.0, 0.0, 0.0, 0.0, 1.7151627416974223E9, 0.0, 2024-05-08 13:05:41.697
154.0, -5302.3925784102175, 0.0, 0.0, 0.0, 0.0, 0.0, 0.0, 0.0, -0.004, -0.046, 0.992, 192.0, 0.0, 0.0, 0.0, 0.0, 0.0, 0.0, 0.0, 0.0, 0.0, 1.7151627416974409E9, 0.0, 2024-05-08 13:05:41.697
155.0, -5180.866143806714, 0.0, 0.0, 0.0, 0.0, 0.0, 0.0, 0.0, -0.004, -0.046, 0.992, 192.0, 0.0, 0.0, 0.0, 0.0, 0.0, 0.0, 0.0, 0.0, 0.0, 1.7151627416974597E9, 0.0, 2024-05-08 13:05:41.697
156.0, -3788.4418712189045, 0.0, 0.0, 0.0, 0.0, 0.0, 0.0, 0.0, -0.004, -0.046, 0.992, 192.0, 0.0, 0.0, 0.0, 0.0, 0.0, 0.0, 0.0, 0.0, 0.0, 1.7151627416974783E9, 0.0, 2024-05-08 13:05:41.697
157.0, -2837.442199878955, 0.0, 0.0, 0.0, 0.0, 0.0, 0.0, 0.0, 0.002, -0.054, 0.994, 192.0, 0.0, 16.0, 254.0, 80.0, 31.0, 16.0, 0.0, 0.0, 0.0, 1.715162741697497E9, 0.0, 2024-05-08 13:05:41.697
158.0, -3638.014631034688, 0.0, 0.0, 0.0, 0.0, 0.0, 0.0, 0.0, 0.002, -0.054, 0.994, 192.0, 0.0, 0.0, 0.0, 0.0, 0.0, 0.0, 0.0, 0.0, 0.0, 1.7151627416975176E9, 0.0, 2024-05-08 13:05:41.697
159.0, -4932.270041974788, 0.0, 0.0, 0.0, 0.0, 0.0, 0.0, 0.0, 0.002, -0.054, 0.994, 192.0, 0.0, 0.0, 0.0, 0.0, 0.0, 0.0, 0.0, 0.0, 0.0, 1.7151627416975389E9, 0.0, 2024-05-08 13:05:41.697
160.0, -4816.264488251744, 0.0, 0.0, 0.0, 0.0, 0.0, 0.0, 0.0, 0.002, -0.054, 0.994, 192.0, 0.0, 0.0, 0.0, 0.0, 0.0, 0.0, 0.0, 0.0, 0.0, 1.7151627416975574E9, 0.0, 2024-05-08 13:05:41.697
161.0, -3490.895449029857, 0.0, 0.0, 0.0, 0.0, 0.0, 0.0, 0.0, 0.002, -0.054, 0.994, 192.0, 0.0, 0.0, 0.0, 0.0, 0.0, 0.0, 0.0, 0.0, 0.0, 1.7151627416975763E9, 0.0, 2024-05-08 13:05:41.697
162.0, -2701.454186612867, 0.0, 0.0, 0.0, 0.0, 0.0, 0.0, 0.0, 0.002, -0.054, 0.994, 192.0, 0.0, 0.0, 0.0, 0.0, 0.0, 0.0, 0.0, 0.0, 0.0, 1.715162741697595E9, 0.0, 2024-05-08 13:05:41.697
163.0, -3641.1662270028864, 0.0, 0.0, 0.0, 0.0, 0.0, 0.0, 0.0, 0.002, -0.054, 0.994, 192.0, 0.0, 0.0, 0.0, 0.0, 0.0, 0.0, 0.0, 0.0, 0.0, 1.7151627416976137E9, 0.0, 2024-05-08 13:05:41.697
164.0, -4825.093427311591, 0.0, 0.0, 0.0, 0.0, 0.0, 0.0, 0.0, 0.002, -0.054, 0.994, 192.0, 0.0, 0.0, 0.0, 0.0, 0.0, 0.0, 0.0, 0.0, 0.0, 1.7151627416976335E9, 0.0, 2024-05-08 13:05:41.697
165.0, -4828.066209324147, 0.0, 0.0, 0.0, 0.0, 0.0, 0.0, 0.0, 0.002, -0.054, 0.994, 192.0, 0.0, 0.0, 0.0, 0.0, 0.0, 0.0, 0.0, 0.0, 0.0, 1.7151627416976545E9, 0.0, 2024-05-08 13:05:41.697
166.0, -3492.437719397273, 0.0, 0.0, 0.0, 0.0, 0.0, 0.0, 0.0, 0.002, -0.054, 0.994, 192.0, 0.0, 0.0, 0.0, 0.0, 0.0, 0.0, 0.0, 0.0, 0.0, 1.7151627416976955E9, 0.0, 2024-05-08 13:05:41.697
167.0, -2333.924452534253, 0.0, 0.0, 0.0, 0.0, 0.0, 0.0, 0.0, 0.006, -0.052000000000000005, 0.99, 192.0, 0.0, 48.0, 254.0, 96.0, 30.0, 240.0, 0.0, 0.0, 0.0, 1.7151627416977155E9, 0.0, 2024-05-08 13:05:41.697
168.0, -3293.909525145236, 0.0, 0.0, 0.0, 0.0, 0.0, 0.0, 0.0, 0.006, -0.052000000000000005, 0.99, 192.0, 0.0, 0.0, 0.0, 0.0, 0.0, 0.0, 0.0, 0.0, 0.0, 1.7151627416977355E9, 0.0, 2024-05-08 13:05:41.697
169.0, -4747.063487418114, 0.0, 0.0, 0.0, 0.0, 0.0, 0.0, 0.0, 0.006, -0.052000000000000005, 0.99, 192.0, 0.0, 0.0, 0.0, 0.0, 0.0, 0.0, 0.0, 0.0, 0.0, 1.715162741697755E9, 0.0, 2024-05-08 13:05:41.697
170.0, -4636.556462831076, 0.0, 0.0, 0.0, 0.0, 0.0, 0.0, 0.0, 0.006, -0.052000000000000005, 0.99, 192.0, 0.0, 0.0, 0.0, 0.0, 0.0, 0.0, 0.0, 0.0, 0.0, 1.7151627416977744E9, 0.0, 2024-05-08 13:05:41.697
171.0, -3212.079788694357, 0.0, 0.0, 0.0, 0.0, 0.0, 0.0, 0.0, 0.006, -0.052000000000000005, 0.99, 192.0, 0.0, 0.0, 0.0, 0.0, 0.0, 0.0, 0.0, 0.0, 0.0, 1.7151627416977932E9, 0.0, 2024-05-08 13:05:41.697
172.0, -2328.694144331711, 0.0, 0.0, 0.0, 0.0, 0.0, 0.0, 0.0, 0.006, -0.052000000000000005, 0.99, 192.0, 0.0, 0.0, 0.0, 0.0, 0.0, 0.0, 0.0, 0.0, 0.0, 1.715162741697814E9, 0.0, 2024-05-08 13:05:41.697
173.0, -3216.661896307695, 0.0, 0.0, 0.0, 0.0, 0.0, 0.0, 0.0, 0.006, -0.052000000000000005, 0.99, 192.0, 0.0, 0.0, 0.0, 0.0, 0.0, 0.0, 0.0, 0.0, 0.0, 1.7151627416978328E9, 0.0, 2024-05-08 13:05:41.697
174.0, -4501.686036787753, 0.0, 0.0, 0.0, 0.0, 0.0, 0.0, 0.0, 0.006, -0.052000000000000005, 0.99, 192.0, 0.0, 0.0, 0.0, 0.0, 0.0, 0.0, 0.0, 0.0, 0.0, 1.7151627416978517E9, 0.0, 2024-05-08 13:05:41.697
175.0, -4371.464773591134, 0.0, 0.0, 0.0, 0.0, 0.0, 0.0, 0.0, 0.006, -0.052000000000000005, 0.99, 192.0, 0.0, 0.0, 0.0, 0.0, 0.0, 0.0, 0.0, 0.0, 0.0, 1.7151627416978707E9, 0.0, 2024-05-08 13:05:41.697
176.0, -2942.9424337080045, 0.0, 0.0, 0.0, 0.0, 0.0, 0.0, 0.0, 0.006, -0.052000000000000005, 0.99, 192.0, 0.0, 0.0, 0.0, 0.0, 0.0, 0.0, 0.0, 0.0, 0.0, 1.7151627416978903E9, 0.0, 2024-05-08 13:05:41.697
177.0, -2051.152533430163, 0.0, 0.0, 0.0, 0.0, 0.0, 0.0, 0.0, 0.002, -0.052000000000000005, 0.992, 192.0, 0.0, 16.0, 254.0, 96.0, 31.0, 0.0, 0.0, 0.0, 0.0, 1.715162741697909E9, 0.0, 2024-05-08 13:05:41.697
178.0, -2977.2970649358112, 0.0, 0.0, 0.0, 0.0, 0.0, 0.0, 0.0, 0.002, -0.052000000000000005, 0.992, 192.0, 0.0, 0.0, 0.0, 0.0, 0.0, 0.0, 0.0, 0.0, 0.0, 1.7151627416979308E9, 0.0, 2024-05-08 13:05:41.697
179.0, -4317.217089798104, 0.0, 0.0, 0.0, 0.0, 0.0, 0.0, 0.0, 0.002, -0.052000000000000005, 0.992, 192.0, 0.0, 0.0, 0.0, 0.0, 0.0, 0.0, 0.0, 0.0, 0.0, 1.7151627416979496E9, 0.0, 2024-05-08 13:05:41.697
180.0, -4217.93064092763, 0.0, 0.0, 0.0, 0.0, 0.0, 0.0, 0.0, 0.002, -0.052000000000000005, 0.992, 192.0, 0.0, 0.0, 0.0, 0.0, 0.0, 0.0, 0.0, 0.0, 0.0, 1.7151627416979685E9, 0.0, 2024-05-08 13:05:41.697
181.0, -2725.3929049245007, 0.0, 0.0, 0.0, 0.0, 0.0, 0.0, 0.0, 0.002, -0.052000000000000005, 0.992, 192.0, 0.0, 0.0, 0.0, 0.0, 0.0, 0.0, 0.0, 0.0, 0.0, 1.7151627416979892E9, 0.0, 2024-05-08 13:05:41.697
182.0, -1889.7952902073016, 0.0, 0.0, 0.0, 0.0, 0.0, 0.0, 0.0, 0.002, -0.052000000000000005, 0.992, 192.0, 0.0, 0.0, 0.0, 0.0, 0.0, 0.0, 0.0, 0.0, 0.0, 1.715162741698011E9, 0.0, 2024-05-08 13:05:41.698
183.0, -2800.606525016609, 0.0, 0.0, 0.0, 0.0, 0.0, 0.0, 0.0, 0.002, -0.052000000000000005, 0.992, 192.0, 0.0, 0.0, 0.0, 0.0, 0.0, 0.0, 0.0, 0.0, 0.0, 1.715162741698158E9, 0.0, 2024-05-08 13:05:41.698
184.0, -4107.513023318413, 0.0, 0.0, 0.0, 0.0, 0.0, 0.0, 0.0, 0.002, -0.052000000000000005, 0.992, 192.0, 0.0, 0.0, 0.0, 0.0, 0.0, 0.0, 0.0, 0.0, 0.0, 1.7151627416981773E9, 0.0, 2024-05-08 13:05:41.698
185.0, -3964.618321015635, 0.0, 0.0, 0.0, 0.0, 0.0, 0.0, 0.0, 0.002, -0.052000000000000005, 0.992, 192.0, 0.0, 0.0, 0.0, 0.0, 0.0, 0.0, 0.0, 0.0, 0.0, 1.7151627416981978E9, 0.0, 2024-05-08 13:05:41.698
186.0, -2560.3252721220583, 0.0, 0.0, 0.0, 0.0, 0.0, 0.0, 0.0, 0.002, -0.052000000000000005, 0.992, 192.0, 0.0, 0.0, 0.0, 0.0, 0.0, 0.0, 0.0, 0.0, 0.0, 1.715162741698217E9, 0.0, 2024-05-08 13:05:41.698
187.0, -1692.2505727112978, 0.0, 0.0, 0.0, 0.0, 0.0, 0.0, 0.0, 0.002, -0.052000000000000005, 0.992, 192.0, 0.0, 0.0, 254.0, 112.0, 30.0, 240.0, 0.0, 0.0, 0.0, 1.7151627416982353E9, 0.0, 2024-05-08 13:05:41.698
188.0, -2673.849782210563, 0.0, 0.0, 0.0, 0.0, 0.0, 0.0, 0.0, 0.002, -0.052000000000000005, 0.992, 192.0, 0.0, 0.0, 0.0, 0.0, 0.0, 0.0, 0.0, 0.0, 0.0, 1.715162741698253E9, 0.0, 2024-05-08 13:05:41.698
189.0, -3898.211288238918, 0.0, 0.0, 0.0, 0.0, 0.0, 0.0, 0.0, 0.002, -0.052000000000000005, 0.992, 192.0, 0.0, 0.0, 0.0, 0.0, 0.0, 0.0, 0.0, 0.0, 0.0, 1.715162741698271E9, 0.0, 2024-05-08 13:05:41.698
190.0, -3977.068242677241, 0.0, 0.0, 0.0, 0.0, 0.0, 0.0, 0.0, 0.002, -0.052000000000000005, 0.992, 192.0, 0.0, 0.0, 0.0, 0.0, 0.0, 0.0, 0.0, 0.0, 0.0, 1.7151627416982884E9, 0.0, 2024-05-08 13:05:41.698
191.0, -2692.58054406411, 0.0, 0.0, 0.0, 0.0, 0.0, 0.0, 0.0, 0.002, -0.052000000000000005, 0.992, 192.0, 0.0, 0.0, 0.0, 0.0, 0.0, 0.0, 0.0, 0.0, 0.0, 1.7151627416983087E9, 0.0, 2024-05-08 13:05:41.698
192.0, -1749.851018172624, 0.0, 0.0, 0.0, 0.0, 0.0, 0.0, 0.0, 0.002, -0.052000000000000005, 0.992, 192.0, 0.0, 0.0, 0.0, 0.0, 0.0, 0.0, 0.0, 0.0, 0.0, 1.715162741698328E9, 0.0, 2024-05-08 13:05:41.698
193.0, -2486.139832274894, 0.0, 0.0, 0.0, 0.0, 0.0, 0.0, 0.0, 0.002, -0.052000000000000005, 0.992, 192.0, 0.0, 0.0, 0.0, 0.0, 0.0, 0.0, 0.0, 0.0, 0.0, 1.7151627416983476E9, 0.0, 2024-05-08 13:05:41.698
194.0, -3692.172907849897, 0.0, 0.0, 0.0, 0.0, 0.0, 0.0, 0.0, 0.002, -0.052000000000000005, 0.992, 192.0, 0.0, 0.0, 0.0, 0.0, 0.0, 0.0, 0.0, 0.0, 0.0, 1.7151627416983662E9, 0.0, 2024-05-08 13:05:41.698
195.0, -3741.279690418207, 0.0, 0.0, 0.0, 0.0, 0.0, 0.0, 0.0, 0.002, -0.052000000000000005, 0.992, 192.0, 0.0, 0.0, 0.0, 0.0, 0.0, 0.0, 0.0, 0.0, 0.0, 1.7151627416983864E9, 0.0, 2024-05-08 13:05:41.698
196.0, -2381.332502523959, 0.0, 0.0, 0.0, 0.0, 0.0, 0.0, 0.0, 0.002, -0.052000000000000005, 0.992, 192.0, 0.0, 0.0, 0.0, 0.0, 0.0, 0.0, 0.0, 0.0, 0.0, 1.7151627416984038E9, 0.0, 2024-05-08 13:05:41.698
197.0, -1313.8355390829493, 0.0, 0.0, 0.0, 0.0, 0.0, 0.0, 0.0, 0.004, -0.054, 0.99, 192.0, 0.0, 32.0, 254.0, 80.0, 30.0, 240.0, 0.0, 0.0, 0.0, 1.7151627416984212E9, 0.0, 2024-05-08 13:05:41.698
198.0, -2152.160066623696, 0.0, 0.0, 0.0, 0.0, 0.0, 0.0, 0.0, 0.004, -0.054, 0.99, 192.0, 0.0, 0.0, 0.0, 0.0, 0.0, 0.0, 0.0, 0.0, 0.0, 1.7151627416984427E9, 0.0, 2024-05-08 13:05:41.698
199.0, -3553.9720718827334, 0.0, 0.0, 0.0, 0.0, 0.0, 0.0, 0.0, 0.004, -0.054, 0.99, 192.0, 0.0, 0.0, 0.0, 0.0, 0.0, 0.0, 0.0, 0.0, 0.0, 1.7151627416984615E9, 0.0, 2024-05-08 13:05:41.698
200.0, -3510.453225428251, 0.0, 0.0, 0.0, 0.0, 0.0, 0.0, 0.0, 0.004, -0.054, 0.99, 192.0, 0.0, 0.0, 0.0, 0.0, 0.0, 0.0, 0.0, 0.0, 0.0, 1.7151627416984808E9, 0.0, 2024-05-08 13:05:41.698
201.0, -1998.648285704647, 0.0, 0.0, 0.0, 0.0, 0.0, 0.0, 0.0, 0.004, -0.054, 0.99, 192.0, 0.0, 0.0, 0.0, 0.0, 0.0, 0.0, 0.0, 0.0, 0.0, 1.7151627416985817E9, 0.0, 2024-05-08 13:05:41.698
202.0, -1140.6318712987747, 0.0, 0.0, 0.0, 0.0, 0.0, 0.0, 0.0, 0.004, -0.054, 0.99, 192.0, 0.0, 0.0, 0.0, 0.0, 0.0, 0.0, 0.0, 0.0, 0.0, 1.7151627416986003E9, 0.0, 2024-05-08 13:05:41.698
203.0, -1974.6648639041025, 0.0, 0.0, 0.0, 0.0, 0.0, 0.0, 0.0, 0.004, -0.054, 0.99, 192.0, 0.0, 0.0, 0.0, 0.0, 0.0, 0.0, 0.0, 0.0, 0.0, 1.7151627416986198E9, 0.0, 2024-05-08 13:05:41.698
204.0, -3252.6929083696496, 0.0, 0.0, 0.0, 0.0, 0.0, 0.0, 0.0, 0.004, -0.054, 0.99, 192.0, 0.0, 0.0, 0.0, 0.0, 0.0, 0.0, 0.0, 0.0, 0.0, 1.715162741698646E9, 0.0, 2024-05-08 13:05:41.698
205.0, -3310.1145398753333, 0.0, 0.0, 0.0, 0.0, 0.0, 0.0, 0.0, 0.004, -0.054, 0.99, 192.0, 0.0, 0.0, 0.0, 0.0, 0.0, 0.0, 0.0, 0.0, 0.0, 1.7151627416986678E9, 0.0, 2024-05-08 13:05:41.698
206.0, -1962.773735853879, 0.0, 0.0, 0.0, 0.0, 0.0, 0.0, 0.0, 0.004, -0.054, 0.99, 192.0, 0.0, 0.0, 0.0, 0.0, 0.0, 0.0, 0.0, 0.0, 0.0, 1.7151627416986883E9, 0.0, 2024-05-08 13:05:41.698
207.0, -986.047206645871, 0.0, 0.0, 0.0, 0.0, 0.0, 0.0, 0.0, 0.004, -0.054, 0.99, 192.0, 0.0, 0.0, 254.0, 96.0, 31.0, 0.0, 0.0, 0.0, 0.0, 1.7151627416987092E9, 0.0, 2024-05-08 13:05:41.698
208.0, -1724.593546938127, 0.0, 0.0, 0.0, 0.0, 0.0, 0.0, 0.0, 0.004, -0.054, 0.99, 192.0, 0.0, 0.0, 0.0, 0.0, 0.0, 0.0, 0.0, 0.0, 0.0, 1.7151627416987305E9, 0.0, 2024-05-08 13:05:41.698
209.0, -3052.9353681725706, 0.0, 0.0, 0.0, 0.0, 0.0, 0.0, 0.0, 0.004, -0.054, 0.99, 192.0, 0.0, 0.0, 0.0, 0.0, 0.0, 0.0, 0.0, 0.0, 0.0, 1.7151627416987507E9, 0.0, 2024-05-08 13:05:41.698
210.0, -3090.2180779240225, 0.0, 0.0, 0.0, 0.0, 0.0, 0.0, 0.0, 0.004, -0.054, 0.99, 192.0, 0.0, 0.0, 0.0, 0.0, 0.0, 0.0, 0.0, 0.0, 0.0, 1.7151627416987712E9, 0.0, 2024-05-08 13:05:41.698
211.0, -1797.169661184509, 0.0, 0.0, 0.0, 0.0, 0.0, 0.0, 0.0, 0.004, -0.054, 0.99, 192.0, 0.0, 0.0, 0.0, 0.0, 0.0, 0.0, 0.0, 0.0, 0.0, 1.7151627416987932E9, 0.0, 2024-05-08 13:05:41.698
212.0, -901.6917230715422, 0.0, 0.0, 0.0, 0.0, 0.0, 0.0, 0.0, 0.004, -0.054, 0.99, 192.0, 0.0, 0.0, 0.0, 0.0, 0.0, 0.0, 0.0, 0.0, 0.0, 1.7151627416988132E9, 0.0, 2024-05-08 13:05:41.698
213.0, -1614.4665020068292, 0.0, 0.0, 0.0, 0.0, 0.0, 0.0, 0.0, 0.004, -0.054, 0.99, 192.0, 0.0, 0.0, 0.0, 0.0, 0.0, 0.0, 0.0, 0.0, 0.0, 1.7151627416988332E9, 0.0, 2024-05-08 13:05:41.698
214.0, -2797.1420046260364, 0.0, 0.0, 0.0, 0.0, 0.0, 0.0, 0.0, 0.004, -0.054, 0.99, 192.0, 0.0, 0.0, 0.0, 0.0, 0.0, 0.0, 0.0, 0.0, 0.0, 1.7151627416988516E9, 0.0, 2024-05-08 13:05:41.698
215.0, -2804.741597740841, 0.0, 0.0, 0.0, 0.0, 0.0, 0.0, 0.0, 0.004, -0.054, 0.99, 192.0, 0.0, 0.0, 0.0, 0.0, 0.0, 0.0, 0.0, 0.0, 0.0, 1.7151627416988702E9, 0.0, 2024-05-08 13:05:41.698
216.0, -1664.2661886532533, 0.0, 0.0, 0.0, 0.0, 0.0, 0.0, 0.0, 0.004, -0.054, 0.99, 192.0, 0.0, 0.0, 0.0, 0.0, 0.0, 0.0, 0.0, 0.0, 0.0, 1.7151627416988883E9, 0.0, 2024-05-08 13:05:41.698
217.0, -806.6297539031212, 0.0, 0.0, 0.0, 0.0, 0.0, 0.0, 0.0, 0.002, -0.052000000000000005, 0.992, 192.0, 0.0, 16.0, 254.0, 96.0, 31.0, 0.0, 0.0, 0.0, 0.0, 1.715162741698907E9, 0.0, 2024-05-08 13:05:41.698
218.0, -1489.9449336463135, 0.0, 0.0, 0.0, 0.0, 0.0, 0.0, 0.0, 0.002, -0.052000000000000005, 0.992, 192.0, 0.0, 0.0, 0.0, 0.0, 0.0, 0.0, 0.0, 0.0, 0.0, 1.7151627416990154E9, 0.0, 2024-05-08 13:05:41.699
219.0, -2733.104256761582, 0.0, 0.0, 0.0, 0.0, 0.0, 0.0, 0.0, 0.002, -0.052000000000000005, 0.992, 192.0, 0.0, 0.0, 0.0, 0.0, 0.0, 0.0, 0.0, 0.0, 0.0, 1.7151627416990342E9, 0.0, 2024-05-08 13:05:41.699
220.0, -2787.9554376549054, 0.0, 0.0, 0.0, 0.0, 0.0, 0.0, 0.0, 0.002, -0.052000000000000005, 0.992, 192.0, 0.0, 0.0, 0.0, 0.0, 0.0, 0.0, 0.0, 0.0, 0.0, 1.715162741699054E9, 0.0, 2024-05-08 13:05:41.699
221.0, -1502.2607448411877, 0.0, 0.0, 0.0, 0.0, 0.0, 0.0, 0.0, 0.002, -0.052000000000000005, 0.992, 192.0, 0.0, 0.0, 0.0, 0.0, 0.0, 0.0, 0.0, 0.0, 0.0, 1.7151627416990745E9, 0.0, 2024-05-08 13:05:41.699
222.0, -545.069640287118, 0.0, 0.0, 0.0, 0.0, 0.0, 0.0, 0.0, 0.002, -0.052000000000000005, 0.992, 192.0, 0.0, 0.0, 0.0, 0.0, 0.0, 0.0, 0.0, 0.0, 0.0, 1.7151627416990952E9, 0.0, 2024-05-08 13:05:41.699
223.0, -1173.5783426258972, 0.0, 0.0, 0.0, 0.0, 0.0, 0.0, 0.0, 0.002, -0.052000000000000005, 0.992, 192.0, 0.0, 0.0, 0.0, 0.0, 0.0, 0.0, 0.0, 0.0, 0.0, 1.715162741699114E9, 0.0, 2024-05-08 13:05:41.699
224.0, -2422.794988488554, 0.0, 0.0, 0.0, 0.0, 0.0, 0.0, 0.0, 0.002, -0.052000000000000005, 0.992, 192.0, 0.0, 0.0, 0.0, 0.0, 0.0, 0.0, 0.0, 0.0, 0.0, 1.715162741699134E9, 0.0, 2024-05-08 13:05:41.699
225.0, -2519.2204140687486, 0.0, 0.0, 0.0, 0.0, 0.0, 0.0, 0.0, 0.002, -0.052000000000000005, 0.992, 192.0, 0.0, 0.0, 0.0, 0.0, 0.0, 0.0, 0.0, 0.0, 0.0, 1.715162741699152E9, 0.0, 2024-05-08 13:05:41.699
226.0, -1255.4080790767764, 0.0, 0.0, 0.0, 0.0, 0.0, 0.0, 0.0, 0.002, -0.052000000000000005, 0.992, 192.0, 0.0, 0.0, 0.0, 0.0, 0.0, 0.0, 0.0, 0.0, 0.0, 1.7151627416991696E9, 0.0, 2024-05-08 13:05:41.699
227.0, -323.69796320175686, 0.0, 0.0, 0.0, 0.0, 0.0, 0.0, 0.0, 0.006, -0.05, 0.99, 192.0, 0.0, 48.0, 254.0, 112.0, 30.0, 240.0, 0.0, 0.0, 0.0, 1.7151627416991875E9, 0.0, 2024-05-08 13:05:41.699
228.0, -918.9249180465839, 0.0, 0.0, 0.0, 0.0, 0.0, 0.0, 0.0, 0.006, -0.05, 0.99, 192.0, 0.0, 0.0, 0.0, 0.0, 0.0, 0.0, 0.0, 0.0, 0.0, 1.7151627416992064E9, 0.0, 2024-05-08 13:05:41.699
229.0, -2084.680150113124, 0.0, 0.0, 0.0, 0.0, 0.0, 0.0, 0.0, 0.006, -0.05, 0.99, 192.0, 0.0, 0.0, 0.0, 0.0, 0.0, 0.0, 0.0, 0.0, 0.0, 1.7151627416992242E9, 0.0, 2024-05-08 13:05:41.699
230.0, -2241.63409967829, 0.0, 0.0, 0.0, 0.0, 0.0, 0.0, 0.0, 0.006, -0.05, 0.99, 192.0, 0.0, 0.0, 0.0, 0.0, 0.0, 0.0, 0.0, 0.0, 0.0, 1.7151627416992428E9, 0.0, 2024-05-08 13:05:41.699
231.0, -1185.6259328873077, 0.0, 0.0, 0.0, 0.0, 0.0, 0.0, 0.0, 0.006, -0.05, 0.99, 192.0, 0.0, 0.0, 0.0, 0.0, 0.0, 0.0, 0.0, 0.0, 0.0, 1.7151627416992626E9, 0.0, 2024-05-08 13:05:41.699
232.0, -301.01094257962023, 0.0, 0.0, 0.0, 0.0, 0.0, 0.0, 0.0, 0.006, -0.05, 0.99, 192.0, 0.0, 0.0, 0.0, 0.0, 0.0, 0.0, 0.0, 0.0, 0.0, 1.715162741699284E9, 0.0, 2024-05-08 13:05:41.699
233.0, -904.1727667060813, 0.0, 0.0, 0.0, 0.0, 0.0, 0.0, 0.0, 0.006, -0.05, 0.99, 192.0, 0.0, 0.0, 0.0, 0.0, 0.0, 0.0, 0.0, 0.0, 0.0, 1.7151627416993072E9, 0.0, 2024-05-08 13:05:41.699
234.0, -2129.9424326351204, 0.0, 0.0, 0.0, 0.0, 0.0, 0.0, 0.0, 0.006, -0.05, 0.99, 192.0, 0.0, 0.0, 0.0, 0.0, 0.0, 0.0, 0.0, 0.0, 0.0, 1.715162741699328E9, 0.0, 2024-05-08 13:05:41.699
235.0, -2192.549668854436, 0.0, 0.0, 0.0, 0.0, 0.0, 0.0, 0.0, 0.006, -0.05, 0.99, 192.0, 0.0, 0.0, 0.0, 0.0, 0.0, 0.0, 0.0, 0.0, 0.0, 1.7151627416993515E9, 0.0, 2024-05-08 13:05:41.699
236.0, -911.0571039983158, 0.0, 0.0, 0.0, 0.0, 0.0, 0.0, 0.0, 0.006, -0.05, 0.99, 192.0, 0.0, 0.0, 0.0, 0.0, 0.0, 0.0, 0.0, 0.0, 0.0, 1.7151627416995652E9, 0.0, 2024-05-08 13:05:41.699
237.0, 67.14464034374241, 0.0, 0.0, 0.0, 0.0, 0.0, 0.0, 0.0, 0.002, -0.05, 0.994, 192.0, 0.0, 16.0, 254.0, 112.0, 31.0, 16.0, 0.0, 0.0, 0.0, 1.715162741699592E9, 0.0, 2024-05-08 13:05:41.699
238.0, -497.95216297533074, 0.0, 0.0, 0.0, 0.0, 0.0, 0.0, 0.0, 0.002, -0.05, 0.994, 192.0, 0.0, 0.0, 0.0, 0.0, 0.0, 0.0, 0.0, 0.0, 0.0, 1.7151627416996176E9, 0.0, 2024-05-08 13:05:41.699
239.0, -1699.0678547701664, 0.0, 0.0, 0.0, 0.0, 0.0, 0.0, 0.0, 0.002, -0.05, 0.994, 192.0, 0.0, 0.0, 0.0, 0.0, 0.0, 0.0, 0.0, 0.0, 0.0, 1.715162741699642E9, 0.0, 2024-05-08 13:05:41.699
240.0, -1814.3581526706403, 0.0, 0.0, 0.0, 0.0, 0.0, 0.0, 0.0, 0.002, -0.05, 0.994, 192.0, 0.0, 0.0, 0.0, 0.0, 0.0, 0.0, 0.0, 0.0, 0.0, 1.71516274169968E9, 0.0, 2024-05-08 13:05:41.699
241.0, -630.2968418952039, 0.0, 0.0, 0.0, 0.0, 0.0, 0.0, 0.0, 0.002, -0.05, 0.994, 192.0, 0.0, 0.0, 0.0, 0.0, 0.0, 0.0, 0.0, 0.0, 0.0, 1.7151627416997032E9, 0.0, 2024-05-08 13:05:41.699
242.0, 313.6173264524134, 0.0, 0.0, 0.0, 0.0, 0.0, 0.0, 0.0, 0.002, -0.05, 0.994, 192.0, 0.0, 0.0, 0.0, 0.0, 0.0, 0.0, 0.0, 0.0, 0.0, 1.7151627421760893E9, 0.0, 2024-05-08 13:05:42.176
243.0, -291.1091197859192, 0.0, 0.0, 0.0, 0.0, 0.0, 0.0, 0.0, 0.002, -0.05, 0.994, 192.0, 0.0, 0.0, 0.0, 0.0, 0.0, 0.0, 0.0, 0.0, 0.0, 1.7151627421761785E9, 0.0, 2024-05-08 13:05:42.176
244.0, -1534.603719068017, 0.0, 0.0, 0.0, 0.0, 0.0, 0.0, 0.0, 0.002, -0.05, 0.994, 192.0, 0.0, 0.0, 0.0, 0.0, 0.0, 0.0, 0.0, 0.0, 0.0, 1.7151627421762352E9, 0.0, 2024-05-08 13:05:42.176
245.0, -1722.2466137703198, 0.0, 0.0, 0.0, 0.0, 0.0, 0.0, 0.0, 0.002, -0.05, 0.994, 192.0, 0.0, 0.0, 0.0, 0.0, 0.0, 0.0, 0.0, 0.0, 0.0, 1.7151627421762636E9, 0.0, 2024-05-08 13:05:42.176
246.0, -523.4555033988361, 0.0, 0.0, 0.0, 0.0, 0.0, 0.0, 0.0, 0.002, -0.05, 0.994, 192.0, 0.0, 0.0, 0.0, 0.0, 0.0, 0.0, 0.0, 0.0, 0.0, 1.715162742176282E9, 0.0, 2024-05-08 13:05:42.176
247.0, 462.27877882466066, 0.0, 0.0, 0.0, 0.0, 0.0, 0.0, 0.0, 0.004, -0.046, 1.0, 192.0, 0.0, 32.0, 254.0, 144.0, 31.0, 64.0, 0.0, 0.0, 0.0, 1.7151627421762996E9, 0.0, 2024-05-08 13:05:42.176
248.0, -87.70824524262491, 0.0, 0.0, 0.0, 0.0, 0.0, 0.0, 0.0, 0.004, -0.046, 1.0, 192.0, 0.0, 0.0, 0.0, 0.0, 0.0, 0.0, 0.0, 0.0, 0.0, 1.7151627421763198E9, 0.0, 2024-05-08 13:05:42.176
249.0, -1384.2211823727112, 0.0, 0.0, 0.0, 0.0, 0.0, 0.0, 0.0, 0.004, -0.046, 1.0, 192.0, 0.0, 0.0, 0.0, 0.0, 0.0, 0.0, 0.0, 0.0, 0.0, 1.7151627421763384E9, 0.0, 2024-05-08 13:05:42.176
250.0, -1576.4908881772624, 0.0, 0.0, 0.0, 0.0, 0.0, 0.0, 0.0, 0.004, -0.046, 1.0, 192.0, 0.0, 0.0, 0.0, 0.0, 0.0, 0.0, 0.0, 0.0, 0.0, 1.7151627421763563E9, 0.0, 2024-05-08 13:05:42.176
251.0, -376.8280597720218, 0.0, 0.0, 0.0, 0.0, 0.0, 0.0, 0.0, 0.004, -0.046, 1.0, 192.0, 0.0, 0.0, 0.0, 0.0, 0.0, 0.0, 0.0, 0.0, 0.0, 1.715162742176378E9, 0.0, 2024-05-08 13:05:42.176
252.0, 599.3173240801483, 0.0, 0.0, 0.0, 0.0, 0.0, 0.0, 0.0, 0.004, -0.046, 1.0, 192.0, 0.0, 0.0, 0.0, 0.0, 0.0, 0.0, 0.0, 0.0, 0.0, 1.7151627421764E9, 0.0, 2024-05-08 13:05:42.176
253.0, 59.61210246230394, 0.0, 0.0, 0.0, 0.0, 0.0, 0.0, 0.0, 0.004, -0.046, 1.0, 192.0, 0.0, 0.0, 0.0, 0.0, 0.0, 0.0, 0.0, 0.0, 0.0, 1.715162742176538E9, 0.0, 2024-05-08 13:05:42.176
254.0, -1303.3749226778655, 0.0, 0.0, 0.0, 0.0, 0.0, 0.0, 0.0, 0.004, -0.046, 1.0, 192.0, 0.0, 0.0, 0.0, 0.0, 0.0, 0.0, 0.0, 0.0, 0.0, 1.7151627421765523E9, 0.0, 2024-05-08 13:05:42.176
255.0, -1552.8427425435475, 0.0, 0.0, 0.0, 0.0, 0.0, 0.0, 0.0, 0.004, -0.046, 1.0, 192.0, 0.0, 0.0, 0.0, 0.0, 0.0, 0.0, 0.0, 0.0, 0.0, 1.7151627421765666E9, 0.0, 2024-05-08 13:05:42.176
0.0, -390.8873070344099, 0.0, 0.0, 0.0, 0.0, 0.0, 0.0, 0.0, 0.004, -0.046, 1.0, 192.0, 0.0, 0.0, 0.0, 0.0, 0.0, 0.0, 0.0, 0.0, 0.0, 1.7151627421765807E9, 0.0, 2024-05-08 13:05:42.176
1.0, 522.2261574537943, 0.0, 0.0, 0.0, 0.0, 0.0, 0.0, 0.0, 0.002, -0.048, 0.992, 192.0, 0.0, 16.0, 254.0, 128.0, 31.0, 0.0, 0.0, 0.0, 0.0, 1.715162742176596E9, 0.0, 2024-05-08 13:05:42.176
2.0, -94.9725621905997, 0.0, 0.0, 0.0, 0.0, 0.0, 0.0, 0.0, 0.002, -0.048, 0.992, 192.0, 0.0, 0.0, 0.0, 0.0, 0.0, 0.0, 0.0, 0.0, 0.0, 1.7151627421766107E9, 0.0, 2024-05-08 13:05:42.176
3.0, -1397.6322290458954, 0.0, 0.0, 0.0, 0.0, 0.0, 0.0, 0.0, 0.002, -0.048, 0.992, 192.0, 0.0, 0.0, 0.0, 0.0, 0.0, 0.0, 0.0, 0.0, 0.0, 1.7151627421766253E9, 0.0, 2024-05-08 13:05:42.176
4.0, -1604.8329001465918, 0.0, 0.0, 0.0, 0.0, 0.0, 0.0, 0.0, 0.002, -0.048, 0.992, 192.0, 0.0, 0.0, 0.0, 0.0, 0.0, 0.0, 0.0, 0.0, 0.0, 1.7151627421766393E9, 0.0, 2024-05-08 13:05:42.176
5.0, -458.79190668963275, 0.0, 0.0, 0.0, 0.0, 0.0, 0.0, 0.0, 0.002, -0.048, 0.992, 192.0, 0.0, 0.0, 0.0, 0.0, 0.0, 0.0, 0.0, 0.0, 0.0, 1.715162742176653E9, 0.0, 2024-05-08 13:05:42.176
6.0, 469.52074402818016, 0.0, 0.0, 0.0, 0.0, 0.0, 0.0, 0.0, 0.002, -0.048, 0.992, 192.0, 0.0, 0.0, 0.0, 0.0, 0.0, 0.0, 0.0, 0.0, 0.0, 1.7151627421766667E9, 0.0, 2024-05-08 13:05:42.176
7.0, -112.3398676323733, 0.0, 0.0, 0.0, 0.0, 0.0, 0.0, 0.0, 0.002, -0.048, 0.992, 192.0, 0.0, 0.0, 0.0, 0.0, 0.0, 0.0, 0.0, 0.0, 0.0, 1.7151627421766806E9, 0.0, 2024-05-08 13:05:42.176
8.0, -1406.6176303169289, 0.0, 0.0, 0.0, 0.0, 0.0, 0.0, 0.0, 0.002, -0.048, 0.992, 192.0, 0.0, 0.0, 0.0, 0.0, 0.0, 0.0, 0.0, 0.0, 0.0, 1.715162742176696E9, 0.0, 2024-05-08 13:05:42.176
9.0, -1611.0243333607118, 0.0, 0.0, 0.0, 0.0, 0.0, 0.0, 0.0, 0.002, -0.048, 0.992, 192.0, 0.0, 0.0, 0.0, 0.0, 0.0, 0.0, 0.0, 0.0, 0.0, 1.71516274217671E9, 0.0, 2024-05-08 13:05:42.176
10.0, -428.1476650414068, 0.0, 0.0, 0.0, 0.0, 0.0, 0.0, 0.0, 0.002, -0.048, 0.992, 192.0, 0.0, 0.0, 0.0, 0.0, 0.0, 0.0, 0.0, 0.0, 0.0, 1.7151627421767237E9, 0.0, 2024-05-08 13:05:42.176
11.0, 507.22813692428315, 0.0, 0.0, 0.0, 0.0, 0.0, 0.0, 0.0, 0.004, -0.052000000000000005, 0.994, 192.0, 0.0, 32.0, 254.0, 96.0, 31.0, 16.0, 0.0, 0.0, 0.0, 1.7151627421767375E9, 0.0, 2024-05-08 13:05:42.176
12.0, -79.70632072762498, 0.0, 0.0, 0.0, 0.0, 0.0, 0.0, 0.0, 0.004, -0.052000000000000005, 0.994, 192.0, 0.0, 0.0, 0.0, 0.0, 0.0, 0.0, 0.0, 0.0, 0.0, 1.715162742176752E9, 0.0, 2024-05-08 13:05:42.176
13.0, -1393.743025510672, 0.0, 0.0, 0.0, 0.0, 0.0, 0.0, 0.0, 0.004, -0.052000000000000005, 0.994, 192.0, 0.0, 0.0, 0.0, 0.0, 0.0, 0.0, 0.0, 0.0, 0.0, 1.715162742176766E9, 0.0, 2024-05-08 13:05:42.176
14.0, -1632.1020283820665, 0.0, 0.0, 0.0, 0.0, 0.0, 0.0, 0.0, 0.004, -0.052000000000000005, 0.994, 192.0, 0.0, 0.0, 0.0, 0.0, 0.0, 0.0, 0.0, 0.0, 0.0, 1.7151627421768289E9, 0.0, 2024-05-08 13:05:42.176
15.0, -435.9707756007643, 0.0, 0.0, 0.0, 0.0, 0.0, 0.0, 0.0, 0.004, -0.052000000000000005, 0.994, 192.0, 0.0, 0.0, 0.0, 0.0, 0.0, 0.0, 0.0, 0.0, 0.0, 1.715162742176998E9, 0.0, 2024-05-08 13:05:42.176
16.0, 540.5769396516013, 0.0, 0.0, 0.0, 0.0, 0.0, 0.0, 0.0, 0.004, -0.052000000000000005, 0.994, 192.0, 0.0, 0.0, 0.0, 0.0, 0.0, 0.0, 0.0, 0.0, 0.0, 1.715162742177014E9, 0.0, 2024-05-08 13:05:42.177
17.0, -19.378962442751224, 0.0, 0.0, 0.0, 0.0, 0.0, 0.0, 0.0, 0.004, -0.052000000000000005, 0.994, 192.0, 0.0, 0.0, 0.0, 0.0, 0.0, 0.0, 0.0, 0.0, 0.0, 1.7151627421770284E9, 0.0, 2024-05-08 13:05:42.177
18.0, -1375.1016706349458, 0.0, 0.0, 0.0, 0.0, 0.0, 0.0, 0.0, 0.004, -0.052000000000000005, 0.994, 192.0, 0.0, 0.0, 0.0, 0.0, 0.0, 0.0, 0.0, 0.0, 0.0, 1.7151627421770425E9, 0.0, 2024-05-08 13:05:42.177
19.0, -1845.6058914191594, 0.0, 0.0, 0.0, 0.0, 0.0, 0.0, 0.0, 0.004, -0.052000000000000005, 0.994, 192.0, 0.0, 0.0, 0.0, 0.0, 0.0, 0.0, 0.0, 0.0, 0.0, 1.7151627421770563E9, 0.0, 2024-05-08 13:05:42.177
20.0, -725.7834942082757, 0.0, 0.0, 0.0, 0.0, 0.0, 0.0, 0.0, 0.004, -0.052000000000000005, 0.994, 192.0, 0.0, 0.0, 0.0, 0.0, 0.0, 0.0, 0.0, 0.0, 0.0, 1.7151627421770709E9, 0.0, 2024-05-08 13:05:42.177
21.0, 326.5366347475809, 0.0, 0.0, 0.0, 0.0, 0.0, 0.0, 0.0, 0.006, -0.056, 0.996, 192.0, 0.0, 48.0, 254.0, 64.0, 31.0, 32.0, 0.0, 0.0, 0.0, 1.7151627421770866E9, 0.0, 2024-05-08 13:05:42.177
22.0, -151.2766064735182, 0.0, 0.0, 0.0, 0.0, 0.0, 0.0, 0.0, 0.006, -0.056, 0.996, 192.0, 0.0, 0.0, 0.0, 0.0, 0.0, 0.0, 0.0, 0.0, 0.0, 1.7151627421771016E9, 0.0, 2024-05-08 13:05:42.177
23.0, -1454.897398340392, 0.0, 0.0, 0.0, 0.0, 0.0, 0.0, 0.0, 0.006, -0.056, 0.996, 192.0, 0.0, 0.0, 0.0, 0.0, 0.0, 0.0, 0.0, 0.0, 0.0, 1.715162742177116E9, 0.0, 2024-05-08 13:05:42.177
24.0, -1684.1368894740212, 0.0, 0.0, 0.0, 0.0, 0.0, 0.0, 0.0, 0.006, -0.056, 0.996, 192.0, 0.0, 0.0, 0.0, 0.0, 0.0, 0.0, 0.0, 0.0, 0.0, 1.7151627421771307E9, 0.0, 2024-05-08 13:05:42.177
25.0, -532.1950354808612, 0.0, 0.0, 0.0, 0.0, 0.0, 0.0, 0.0, 0.006, -0.056, 0.996, 192.0, 0.0, 0.0, 0.0, 0.0, 0.0, 0.0, 0.0, 0.0, 0.0, 1.7151627421771443E9, 0.0, 2024-05-08 13:05:42.177
26.0, 433.2885662661274, 0.0, 0.0, 0.0, 0.0, 0.0, 0.0, 0.0, 0.006, -0.056, 0.996, 192.0, 0.0, 0.0, 0.0, 0.0, 0.0, 0.0, 0.0, 0.0, 0.0, 1.7151627421771584E9, 0.0, 2024-05-08 13:05:42.177
27.0, -244.50573259660396, 0.0, 0.0, 0.0, 0.0, 0.0, 0.0, 0.0, 0.006, -0.056, 0.996, 192.0, 0.0, 0.0, 0.0, 0.0, 0.0, 0.0, 0.0, 0.0, 0.0, 1.715162742177174E9, 0.0, 2024-05-08 13:05:42.177
28.0, -1602.5083187232399, 0.0, 0.0, 0.0, 0.0, 0.0, 0.0, 0.0, 0.006, -0.056, 0.996, 192.0, 0.0, 0.0, 0.0, 0.0, 0.0, 0.0, 0.0, 0.0, 0.0, 1.715162742177192E9, 0.0, 2024-05-08 13:05:42.177
29.0, -1917.042066698321, 0.0, 0.0, 0.0, 0.0, 0.0, 0.0, 0.0, 0.006, -0.056, 0.996, 192.0, 0.0, 0.0, 0.0, 0.0, 0.0, 0.0, 0.0, 0.0, 0.0, 1.7151627421772175E9, 0.0, 2024-05-08 13:05:42.177
30.0, -817.671515664043, 0.0, 0.0, 0.0, 0.0, 0.0, 0.0, 0.0, 0.006, -0.056, 0.996, 192.0, 0.0, 0.0, 0.0, 0.0, 0.0, 0.0, 0.0, 0.0, 0.0, 1.7151627421772428E9, 0.0, 2024-05-08 13:05:42.177
31.0, 208.72058972365735, 0.0, 0.0, 0.0, 0.0, 0.0, 0.0, 0.0, 0.006, -0.052000000000000005, 1.0, 192.0, 0.0, 48.0, 254.0, 96.0, 31.0, 64.0, 0.0, 0.0, 0.0, 1.7151627421772687E9, 0.0, 2024-05-08 13:05:42.177
32.0, -258.922607770277, 0.0, 0.0, 0.0, 0.0, 0.0, 0.0, 0.0, 0.006, -0.052000000000000005, 1.0, 192.0, 0.0, 0.0, 0.0, 0.0, 0.0, 0.0, 0.0, 0.0, 0.0, 1.7151627421773136E9, 0.0, 2024-05-08 13:05:42.177
33.0, -1637.8464267070804, 0.0, 0.0, 0.0, 0.0, 0.0, 0.0, 0.0, 0.006, -0.052000000000000005, 1.0, 192.0, 0.0, 0.0, 0.0, 0.0, 0.0, 0.0, 0.0, 0.0, 0.0, 1.7151627421773288E9, 0.0, 2024-05-08 13:05:42.177
34.0, -1949.1168199916865, 0.0, 0.0, 0.0, 0.0, 0.0, 0.0, 0.0, 0.006, -0.052000000000000005, 1.0, 192.0, 0.0, 0.0, 0.0, 0.0, 0.0, 0.0, 0.0, 0.0, 0.0, 1.715162742177345E9, 0.0, 2024-05-08 13:05:42.177
35.0, -953.503066718944, 0.0, 0.0, 0.0, 0.0, 0.0, 0.0, 0.0, 0.006, -0.052000000000000005, 1.0, 192.0, 0.0, 0.0, 0.0, 0.0, 0.0, 0.0, 0.0, 0.0, 0.0, 1.7151627421773589E9, 0.0, 2024-05-08 13:05:42.177
36.0, -4.090369235321193, 0.0, 0.0, 0.0, 0.0, 0.0, 0.0, 0.0, 0.006, -0.052000000000000005, 1.0, 192.0, 0.0, 0.0, 0.0, 0.0, 0.0, 0.0, 0.0, 0.0, 0.0, 1.7151627421773727E9, 0.0, 2024-05-08 13:05:42.177
37.0, -527.1882447228724, 0.0, 0.0, 0.0, 0.0, 0.0, 0.0, 0.0, 0.006, -0.052000000000000005, 1.0, 192.0, 0.0, 0.0, 0.0, 0.0, 0.0, 0.0, 0.0, 0.0, 0.0, 1.7151627421773863E9, 0.0, 2024-05-08 13:05:42.177
38.0, -1919.9477934775107, 0.0, 0.0, 0.0, 0.0, 0.0, 0.0, 0.0, 0.006, -0.052000000000000005, 1.0, 192.0, 0.0, 0.0, 0.0, 0.0, 0.0, 0.0, 0.0, 0.0, 0.0, 1.7151627421774E9, 0.0, 2024-05-08 13:05:42.177
39.0, -2230.7935036174663, 0.0, 0.0, 0.0, 0.0, 0.0, 0.0, 0.0, 0.006, -0.052000000000000005, 1.0, 192.0, 0.0, 0.0, 0.0, 0.0, 0.0, 0.0, 0.0, 0.0, 0.0, 1.7151627421774137E9, 0.0, 2024-05-08 13:05:42.177
40.0, -1053.5494749008983, 0.0, 0.0, 0.0, 0.0, 0.0, 0.0, 0.0, 0.006, -0.052000000000000005, 1.0, 192.0, 0.0, 0.0, 0.0, 0.0, 0.0, 0.0, 0.0, 0.0, 0.0, 1.7151627421774297E9, 0.0, 2024-05-08 13:05:42.177
41.0, -65.20003857613071, 0.0, 0.0, 0.0, 0.0, 0.0, 0.0, 0.0, 0.006, -0.05, 0.99, 192.0, 0.0, 48.0, 254.0, 112.0, 30.0, 240.0, 0.0, 0.0, 0.0, 1.7151627421774485E9, 0.0, 2024-05-08 13:05:42.177
42.0, -636.7788477872429, 0.0, 0.0, 0.0, 0.0, 0.0, 0.0, 0.0, 0.006, -0.05, 0.99, 192.0, 0.0, 0.0, 0.0, 0.0, 0.0, 0.0, 0.0, 0.0, 0.0, 1.7151627421774747E9, 0.0, 2024-05-08 13:05:42.177
43.0, -2017.8931376806663, 0.0, 0.0, 0.0, 0.0, 0.0, 0.0, 0.0, 0.006, -0.05, 0.99, 192.0, 0.0, 0.0, 0.0, 0.0, 0.0, 0.0, 0.0, 0.0, 0.0, 1.7151627421775048E9, 0.0, 2024-05-08 13:05:42.177
44.0, -2327.0624669864737, 0.0, 0.0, 0.0, 0.0, 0.0, 0.0, 0.0, 0.006, -0.05, 0.99, 192.0, 0.0, 0.0, 0.0, 0.0, 0.0, 0.0, 0.0, 0.0, 0.0, 1.7151627421775317E9, 0.0, 2024-05-08 13:05:42.177
45.0, -1196.9806190706038, 0.0, 0.0, 0.0, 0.0, 0.0, 0.0, 0.0, 0.006, -0.05, 0.99, 192.0, 0.0, 0.0, 0.0, 0.0, 0.0, 0.0, 0.0, 0.0, 0.0, 1.7151627421775503E9, 0.0, 2024-05-08 13:05:42.177
46.0, -176.5564294524705, 0.0, 0.0, 0.0, 0.0, 0.0, 0.0, 0.0, 0.006, -0.05, 0.99, 192.0, 0.0, 0.0, 0.0, 0.0, 0.0, 0.0, 0.0, 0.0, 0.0, 1.7151627421775734E9, 0.0, 2024-05-08 13:05:42.177
47.0, -599.7196554803438, 0.0, 0.0, 0.0, 0.0, 0.0, 0.0, 0.0, 0.006, -0.05, 0.99, 192.0, 0.0, 0.0, 0.0, 0.0, 0.0, 0.0, 0.0, 0.0, 0.0, 1.71516274217759E9, 0.0, 2024-05-08 13:05:42.177
48.0, -1992.3450937682503, 0.0, 0.0, 0.0, 0.0, 0.0, 0.0, 0.0, 0.006, -0.05, 0.99, 192.0, 0.0, 0.0, 0.0, 0.0, 0.0, 0.0, 0.0, 0.0, 0.0, 1.715162742177604E9, 0.0, 2024-05-08 13:05:42.177
49.0, -2433.6802880382884, 0.0, 0.0, 0.0, 0.0, 0.0, 0.0, 0.0, 0.006, -0.05, 0.99, 192.0, 0.0, 0.0, 0.0, 0.0, 0.0, 0.0, 0.0, 0.0, 0.0, 1.7151627421776178E9, 0.0, 2024-05-08 13:05:42.177
50.0, -1345.3962022538426, 0.0, 0.0, 0.0, 0.0, 0.0, 0.0, 0.0, 0.006, -0.05, 0.99, 192.0, 0.0, 0.0, 0.0, 0.0, 0.0, 0.0, 0.0, 0.0, 0.0, 1.7151627421776545E9, 0.0, 2024-05-08 13:05:42.177
51.0, -216.7895694720232, 0.0, 0.0, 0.0, 0.0, 0.0, 0.0, 0.0, 0.004, -0.048, 0.994, 192.0, 0.0, 32.0, 254.0, 128.0, 31.0, 16.0, 0.0, 0.0, 0.0, 1.715162742177668E9, 0.0, 2024-05-08 13:05:42.177
52.0, -554.8597043585426, 0.0, 0.0, 0.0, 0.0, 0.0, 0.0, 0.0, 0.004, -0.048, 0.994, 192.0, 0.0, 0.0, 0.0, 0.0, 0.0, 0.0, 0.0, 0.0, 0.0, 1.7151627421776824E9, 0.0, 2024-05-08 13:05:42.177
53.0, -2019.1224836257081, 0.0, 0.0, 0.0, 0.0, 0.0, 0.0, 0.0, 0.004, -0.048, 0.994, 192.0, 0.0, 0.0, 0.0, 0.0, 0.0, 0.0, 0.0, 0.0, 0.0, 1.715162742177696E9, 0.0, 2024-05-08 13:05:42.177
54.0, -2470.337148944992, 0.0, 0.0, 0.0, 0.0, 0.0, 0.0, 0.0, 0.004, -0.048, 0.994, 192.0, 0.0, 0.0, 0.0, 0.0, 0.0, 0.0, 0.0, 0.0, 0.0, 1.7151627421777115E9, 0.0, 2024-05-08 13:05:42.177
55.0, -1290.7685388050722, 0.0, 0.0, 0.0, 0.0, 0.0, 0.0, 0.0, 0.004, -0.048, 0.994, 192.0, 0.0, 0.0, 0.0, 0.0, 0.0, 0.0, 0.0, 0.0, 0.0, 1.7151627421777253E9, 0.0, 2024-05-08 13:05:42.177
56.0, -151.07544077342044, 0.0, 0.0, 0.0, 0.0, 0.0, 0.0, 0.0, 0.004, -0.048, 0.994, 192.0, 0.0, 0.0, 0.0, 0.0, 0.0, 0.0, 0.0, 0.0, 0.0, 1.7151627421777387E9, 0.0, 2024-05-08 13:05:42.177
57.0, -569.8800766325089, 0.0, 0.0, 0.0, 0.0, 0.0, 0.0, 0.0, 0.004, -0.048, 0.994, 192.0, 0.0, 0.0, 0.0, 0.0, 0.0, 0.0, 0.0, 0.0, 0.0, 1.715162742177752E9, 0.0, 2024-05-08 13:05:42.177
58.0, -1976.3859482271612, 0.0, 0.0, 0.0, 0.0, 0.0, 0.0, 0.0, 0.004, -0.048, 0.994, 192.0, 0.0, 0.0, 0.0, 0.0, 0.0, 0.0, 0.0, 0.0, 0.0, 1.7151627421777656E9, 0.0, 2024-05-08 13:05:42.177
59.0, -2355.2256650001605, 0.0, 0.0, 0.0, 0.0, 0.0, 0.0, 0.0, 0.004, -0.048, 0.994, 192.0, 0.0, 0.0, 0.0, 0.0, 0.0, 0.0, 0.0, 0.0, 0.0, 1.7151627421778245E9, 0.0, 2024-05-08 13:05:42.177
60.0, -1149.9301969921823, 0.0, 0.0, 0.0, 0.0, 0.0, 0.0, 0.0, 0.004, -0.048, 0.994, 192.0, 0.0, 0.0, 0.0, 0.0, 0.0, 0.0, 0.0, 0.0, 0.0, 1.7151627421778457E9, 0.0, 2024-05-08 13:05:42.177
61.0, -21.658840377192544, 0.0, 0.0, 0.0, 0.0, 0.0, 0.0, 0.0, 0.002, -0.054, 0.994, 192.0, 0.0, 16.0, 254.0, 80.0, 31.0, 16.0, 0.0, 0.0, 0.0, 1.7151627421778655E9, 0.0, 2024-05-08 13:05:42.177
62.0, -454.65683396540095, 0.0, 0.0, 0.0, 0.0, 0.0, 0.0, 0.0, 0.002, -0.054, 0.994, 192.0, 0.0, 0.0, 0.0, 0.0, 0.0, 0.0, 0.0, 0.0, 0.0, 1.7151627421778872E9, 0.0, 2024-05-08 13:05:42.177
63.0, -1915.1868719085303, 0.0, 0.0, 0.0, 0.0, 0.0, 0.0, 0.0, 0.002, -0.054, 0.994, 192.0, 0.0, 0.0, 0.0, 0.0, 0.0, 0.0, 0.0, 0.0, 0.0, 1.7151627421779103E9, 0.0, 2024-05-08 13:05:42.177
64.0, -2358.310205734993, 0.0, 0.0, 0.0, 0.0, 0.0, 0.0, 0.0, 0.002, -0.054, 0.994, 192.0, 0.0, 0.0, 0.0, 0.0, 0.0, 0.0, 0.0, 0.0, 0.0, 1.715162742177925E9, 0.0, 2024-05-08 13:05:42.177
65.0, -1209.0505610764696, 0.0, 0.0, 0.0, 0.0, 0.0, 0.0, 0.0, 0.002, -0.054, 0.994, 192.0, 0.0, 0.0, 0.0, 0.0, 0.0, 0.0, 0.0, 0.0, 0.0, 1.7151627421779392E9, 0.0, 2024-05-08 13:05:42.177
66.0, -102.95213496114432, 0.0, 0.0, 0.0, 0.0, 0.0, 0.0, 0.0, 0.002, -0.054, 0.994, 192.0, 0.0, 0.0, 0.0, 0.0, 0.0, 0.0, 0.0, 0.0, 0.0, 1.7151627421779528E9, 0.0, 2024-05-08 13:05:42.177
67.0, -616.7516847552878, 0.0, 0.0, 0.0, 0.0, 0.0, 0.0, 0.0, 0.002, -0.054, 0.994, 192.0, 0.0, 0.0, 0.0, 0.0, 0.0, 0.0, 0.0, 0.0, 0.0, 1.7151627421779685E9, 0.0, 2024-05-08 13:05:42.177
68.0, -2120.8452726418104, 0.0, 0.0, 0.0, 0.0, 0.0, 0.0, 0.0, 0.002, -0.054, 0.994, 192.0, 0.0, 0.0, 0.0, 0.0, 0.0, 0.0, 0.0, 0.0, 0.0, 1.7151627421779983E9, 0.0, 2024-05-08 13:05:42.177
69.0, -2621.7925693741527, 0.0, 0.0, 0.0, 0.0, 0.0, 0.0, 0.0, 0.002, -0.054, 0.994, 192.0, 0.0, 0.0, 0.0, 0.0, 0.0, 0.0, 0.0, 0.0, 0.0, 1.7151627421780217E9, 0.0, 2024-05-08 13:05:42.178
70.0, -1481.317160286565, 0.0, 0.0, 0.0, 0.0, 0.0, 0.0, 0.0, 0.002, -0.054, 0.994, 192.0, 0.0, 0.0, 0.0, 0.0, 0.0, 0.0, 0.0, 0.0, 0.0, 1.7151627421780355E9, 0.0, 2024-05-08 13:05:42.178
71.0, -292.6513901533354, 0.0, 0.0, 0.0, 0.0, 0.0, 0.0, 0.0, -0.002, -0.05, 0.988, 192.0, 255.0, 240.0, 254.0, 112.0, 30.0, 224.0, 0.0, 0.0, 0.0, 1.715162742178049E9, 0.0, 2024-05-08 13:05:42.178
72.0, -787.6531228605655, 0.0, 0.0, 0.0, 0.0, 0.0, 0.0, 0.0, -0.002, -0.05, 0.988, 192.0, 0.0, 0.0, 0.0, 0.0, 0.0, 0.0, 0.0, 0.0, 0.0, 1.7151627421780636E9, 0.0, 2024-05-08 13:05:42.178
73.0, -2321.6980483172, 0.0, 0.0, 0.0, 0.0, 0.0, 0.0, 0.0, -0.002, -0.05, 0.988, 192.0, 0.0, 0.0, 0.0, 0.0, 0.0, 0.0, 0.0, 0.0, 0.0, 1.7151627421780796E9, 0.0, 2024-05-08 13:05:42.178
74.0, -2794.4597952913996, 0.0, 0.0, 0.0, 0.0, 0.0, 0.0, 0.0, -0.002, -0.05, 0.988, 192.0, 0.0, 0.0, 0.0, 0.0, 0.0, 0.0, 0.0, 0.0, 0.0, 1.7151627421780932E9, 0.0, 2024-05-08 13:05:42.178
75.0, -1740.7762099237693, 0.0, 0.0, 0.0, 0.0, 0.0, 0.0, 0.0, -0.002, -0.05, 0.988, 192.0, 0.0, 0.0, 0.0, 0.0, 0.0, 0.0, 0.0, 0.0, 0.0, 1.7151627421781065E9, 0.0, 2024-05-08 13:05:42.178
76.0, -716.0157818813065, 0.0, 0.0, 0.0, 0.0, 0.0, 0.0, 0.0, -0.002, -0.05, 0.988, 192.0, 0.0, 0.0, 0.0, 0.0, 0.0, 0.0, 0.0, 0.0, 0.0, 1.7151627421781201E9, 0.0, 2024-05-08 13:05:42.178
77.0, -1234.4644945221537, 0.0, 0.0, 0.0, 0.0, 0.0, 0.0, 0.0, -0.002, -0.05, 0.988, 192.0, 0.0, 0.0, 0.0, 0.0, 0.0, 0.0, 0.0, 0.0, 0.0, 1.7151627421781335E9, 0.0, 2024-05-08 13:05:42.178
78.0, -2859.793944334262, 0.0, 0.0, 0.0, 0.0, 0.0, 0.0, 0.0, -0.002, -0.05, 0.988, 192.0, 0.0, 0.0, 0.0, 0.0, 0.0, 0.0, 0.0, 0.0, 0.0, 1.7151627421781473E9, 0.0, 2024-05-08 13:05:42.178
79.0, -3491.7001118302483, 0.0, 0.0, 0.0, 0.0, 0.0, 0.0, 0.0, -0.002, -0.05, 0.988, 192.0, 0.0, 0.0, 0.0, 0.0, 0.0, 0.0, 0.0, 0.0, 0.0, 1.715162742178161E9, 0.0, 2024-05-08 13:05:42.178
80.0, -2470.1359832448943, 0.0, 0.0, 0.0, 0.0, 0.0, 0.0, 0.0, -0.002, -0.05, 0.988, 192.0, 0.0, 0.0, 0.0, 0.0, 0.0, 0.0, 0.0, 0.0, 0.0, 1.715162742178176E9, 0.0, 2024-05-08 13:05:42.178
81.0, -1389.2950283640657, 0.0, 0.0, 0.0, 0.0, 0.0, 0.0, 0.0, -0.002, -0.048, 0.994, 192.0, 255.0, 240.0, 254.0, 128.0, 31.0, 16.0, 0.0, 0.0, 0.0, 1.7151627421781895E9, 0.0, 2024-05-08 13:05:42.178
82.0, -1820.2590132068412, 0.0, 0.0, 0.0, 0.0, 0.0, 0.0, 0.0, -0.002, -0.048, 0.994, 192.0, 0.0, 0.0, 0.0, 0.0, 0.0, 0.0, 0.0, 0.0, 0.0, 1.715162742178204E9, 0.0, 2024-05-08 13:05:42.178
83.0, -3343.2398251580985, 0.0, 0.0, 0.0, 0.0, 0.0, 0.0, 0.0, -0.002, -0.048, 0.994, 192.0, 0.0, 0.0, 0.0, 0.0, 0.0, 0.0, 0.0, 0.0, 0.0, 1.7151627421782176E9, 0.0, 2024-05-08 13:05:42.178
84.0, -3883.4367851539596, 0.0, 0.0, 0.0, 0.0, 0.0, 0.0, 0.0, -0.002, -0.048, 0.994, 192.0, 0.0, 0.0, 0.0, 0.0, 0.0, 0.0, 0.0, 0.0, 0.0, 1.715162742178231E9, 0.0, 2024-05-08 13:05:42.178
85.0, -2752.8184953711625, 0.0, 0.0, 0.0, 0.0, 0.0, 0.0, 0.0, -0.002, -0.048, 0.994, 192.0, 0.0, 0.0, 0.0, 0.0, 0.0, 0.0, 0.0, 0.0, 0.0, 1.7151627421782541E9, 0.0, 2024-05-08 13:05:42.178
86.0, -1564.3315391935753, 0.0, 0.0, 0.0, 0.0, 0.0, 0.0, 0.0, -0.002, -0.048, 0.994, 192.0, 0.0, 0.0, 0.0, 0.0, 0.0, 0.0, 0.0, 0.0, 0.0, 1.71516274217827E9, 0.0, 2024-05-08 13:05:42.178
87.0, -1891.002284407888, 0.0, 0.0, 0.0, 0.0, 0.0, 0.0, 0.0, -0.002, -0.048, 0.994, 192.0, 0.0, 0.0, 0.0, 0.0, 0.0, 0.0, 0.0, 0.0, 0.0, 1.7151627421782837E9, 0.0, 2024-05-08 13:05:42.178
88.0, -3327.0124586835454, 0.0, 0.0, 0.0, 0.0, 0.0, 0.0, 0.0, -0.002, -0.048, 0.994, 192.0, 0.0, 0.0, 0.0, 0.0, 0.0, 0.0, 0.0, 0.0, 0.0, 1.7151627421782973E9, 0.0, 2024-05-08 13:05:42.178
89.0, -3786.921952595944, 0.0, 0.0, 0.0, 0.0, 0.0, 0.0, 0.0, -0.002, -0.048, 0.994, 192.0, 0.0, 0.0, 0.0, 0.0, 0.0, 0.0, 0.0, 0.0, 0.0, 1.715162742178311E9, 0.0, 2024-05-08 13:05:42.178
90.0, -2637.1482178149486, 0.0, 0.0, 0.0, 0.0, 0.0, 0.0, 0.0, -0.002, -0.048, 0.994, 192.0, 0.0, 0.0, 0.0, 0.0, 0.0, 0.0, 0.0, 0.0, 0.0, 1.7151627421783245E9, 0.0, 2024-05-08 13:05:42.178
91.0, -1444.056802279568, 0.0, 0.0, 0.0, 0.0, 0.0, 0.0, 0.0, -0.002, -0.048, 0.994, 192.0, 0.0, 0.0, 254.0, 64.0, 31.0, 32.0, 0.0, 0.0, 0.0, 1.715162742178338E9, 0.0, 2024-05-08 13:05:42.178
92.0, -1720.1008463026103, 0.0, 0.0, 0.0, 0.0, 0.0, 0.0, 0.0, -0.002, -0.048, 0.994, 192.0, 0.0, 0.0, 0.0, 0.0, 0.0, 0.0, 0.0, 0.0, 0.0, 1.715162742178352E9, 0.0, 2024-05-08 13:05:42.178
93.0, -3117.5766131373184, 0.0, 0.0, 0.0, 0.0, 0.0, 0.0, 0.0, -0.002, -0.048, 0.994, 192.0, 0.0, 0.0, 0.0, 0.0, 0.0, 0.0, 0.0, 0.0, 0.0, 1.7151627421783676E9, 0.0, 2024-05-08 13:05:42.178
94.0, -3624.3577151724953, 0.0, 0.0, 0.0, 0.0, 0.0, 0.0, 0.0, -0.002, -0.048, 0.994, 192.0, 0.0, 0.0, 0.0, 0.0, 0.0, 0.0, 0.0, 0.0, 0.0, 1.7151627421783812E9, 0.0, 2024-05-08 13:05:42.178
95.0, -2557.486600576234, 0.0, 0.0, 0.0, 0.0, 0.0, 0.0, 0.0, -0.002, -0.048, 0.994, 192.0, 0.0, 0.0, 0.0, 0.0, 0.0, 0.0, 0.0, 0.0, 0.0, 1.7151627421783948E9, 0.0, 2024-05-08 13:05:42.178
96.0, -1313.455559427209, 0.0, 0.0, 0.0, 0.0, 0.0, 0.0, 0.0, -0.002, -0.048, 0.994, 192.0, 0.0, 0.0, 0.0, 0.0, 0.0, 0.0, 0.0, 0.0, 0.0, 1.7151627421784081E9, 0.0, 2024-05-08 13:05:42.178
97.0, -1557.7601263237152, 0.0, 0.0, 0.0, 0.0, 0.0, 0.0, 0.0, -0.002, -0.048, 0.994, 192.0, 0.0, 0.0, 0.0, 0.0, 0.0, 0.0, 0.0, 0.0, 0.0, 1.7151627421784215E9, 0.0, 2024-05-08 13:05:42.178
98.0, -3013.1269112976684, 0.0, 0.0, 0.0, 0.0, 0.0, 0.0, 0.0, -0.002, -0.048, 0.994, 192.0, 0.0, 0.0, 0.0, 0.0, 0.0, 0.0, 0.0, 0.0, 0.0, 1.715162742178435E9, 0.0, 2024-05-08 13:05:42.178
99.0, -3512.1966614957646, 0.0, 0.0, 0.0, 0.0, 0.0, 0.0, 0.0, -0.002, -0.048, 0.994, 192.0, 0.0, 0.0, 0.0, 0.0, 0.0, 0.0, 0.0, 0.0, 0.0, 1.715162742178449E9, 0.0, 2024-05-08 13:05:42.178
100.0, -2330.1917112102165, 0.0, 0.0, 0.0, 0.0, 0.0, 0.0, 0.0, -0.002, -0.048, 0.994, 192.0, 0.0, 0.0, 0.0, 0.0, 0.0, 0.0, 0.0, 0.0, 0.0, 1.7151627421784644E9, 0.0, 2024-05-08 13:05:42.178
101.0, -1050.755506843985, 0.0, 0.0, 0.0, 0.0, 0.0, 0.0, 0.0, -0.002, -0.048, 0.994, 192.0, 0.0, 0.0, 254.0, 32.0, 31.0, 32.0, 0.0, 0.0, 0.0, 1.715162742178478E9, 0.0, 2024-05-08 13:05:42.178
102.0, -1258.8278959784384, 0.0, 0.0, 0.0, 0.0, 0.0, 0.0, 0.0, -0.002, -0.048, 0.994, 192.0, 0.0, 0.0, 0.0, 0.0, 0.0, 0.0, 0.0, 0.0, 0.0, 1.7151627421784992E9, 0.0, 2024-05-08 13:05:42.178
103.0, -2697.4085208664565, 0.0, 0.0, 0.0, 0.0, 0.0, 0.0, 0.0, -0.002, -0.048, 0.994, 192.0, 0.0, 0.0, 0.0, 0.0, 0.0, 0.0, 0.0, 0.0, 0.0, 1.7151627421785128E9, 0.0, 2024-05-08 13:05:42.178
104.0, -3165.878732905237, 0.0, 0.0, 0.0, 0.0, 0.0, 0.0, 0.0, -0.002, -0.048, 0.994, 192.0, 0.0, 0.0, 0.0, 0.0, 0.0, 0.0, 0.0, 0.0, 0.0, 1.7151627421785264E9, 0.0, 2024-05-08 13:05:42.178
105.0, -1961.0750032752758, 0.0, 0.0, 0.0, 0.0, 0.0, 0.0, 0.0, -0.002, -0.048, 0.994, 192.0, 0.0, 0.0, 0.0, 0.0, 0.0, 0.0, 0.0, 0.0, 0.0, 1.71516274217854E9, 0.0, 2024-05-08 13:05:42.178
106.0, -623.4125046029693, 0.0, 0.0, 0.0, 0.0, 0.0, 0.0, 0.0, -0.002, -0.048, 0.994, 192.0, 0.0, 0.0, 0.0, 0.0, 0.0, 0.0, 0.0, 0.0, 0.0, 1.7151627426573594E9, 0.0, 2024-05-08 13:05:42.657
107.0, -870.0416529228274, 0.0, 0.0, 0.0, 0.0, 0.0, 0.0, 0.0, -0.002, -0.048, 0.994, 192.0, 0.0, 0.0, 0.0, 0.0, 0.0, 0.0, 0.0, 0.0, 0.0, 1.7151627426574447E9, 0.0, 2024-05-08 13:05:42.657
108.0, -2284.392986821292, 0.0, 0.0, 0.0, 0.0, 0.0, 0.0, 0.0, -0.002, -0.048, 0.994, 192.0, 0.0, 0.0, 0.0, 0.0, 0.0, 0.0, 0.0, 0.0, 0.0, 1.7151627426574872E9, 0.0, 2024-05-08 13:05:42.657
109.0, -2879.9105143440383, 0.0, 0.0, 0.0, 0.0, 0.0, 0.0, 0.0, -0.002, -0.048, 0.994, 192.0, 0.0, 0.0, 0.0, 0.0, 0.0, 0.0, 0.0, 0.0, 0.0, 1.7151627426575336E9, 0.0, 2024-05-08 13:05:42.657
110.0, -1805.6633240775257, 0.0, 0.0, 0.0, 0.0, 0.0, 0.0, 0.0, -0.002, -0.048, 0.994, 192.0, 0.0, 0.0, 0.0, 0.0, 0.0, 0.0, 0.0, 0.0, 0.0, 1.7151627426575747E9, 0.0, 2024-05-08 13:05:42.657
111.0, -549.4952856892688, 0.0, 0.0, 0.0, 0.0, 0.0, 0.0, 0.0, 0.002, -0.056, 0.994, 192.0, 0.0, 16.0, 254.0, 64.0, 31.0, 16.0, 0.0, 0.0, 0.0, 1.7151627426576257E9, 0.0, 2024-05-08 13:05:42.657
112.0, -768.2071051844484, 0.0, 0.0, 0.0, 0.0, 0.0, 0.0, 0.0, 0.002, -0.056, 0.994, 192.0, 0.0, 0.0, 0.0, 0.0, 0.0, 0.0, 0.0, 0.0, 0.0, 1.7151627426576662E9, 0.0, 2024-05-08 13:05:42.657
113.0, -2203.9714102710977, 0.0, 0.0, 0.0, 0.0, 0.0, 0.0, 0.0, 0.002, -0.056, 0.994, 192.0, 0.0, 0.0, 0.0, 0.0, 0.0, 0.0, 0.0, 0.0, 0.0, 1.7151627426577E9, 0.0, 2024-05-08 13:05:42.657
114.0, -2736.7252393633416, 0.0, 0.0, 0.0, 0.0, 0.0, 0.0, 0.0, 0.002, -0.056, 0.994, 192.0, 0.0, 0.0, 0.0, 0.0, 0.0, 0.0, 0.0, 0.0, 0.0, 1.7151627426577315E9, 0.0, 2024-05-08 13:05:42.657
115.0, -1606.5763362141058, 0.0, 0.0, 0.0, 0.0, 0.0, 0.0, 0.0, 0.002, -0.056, 0.994, 192.0, 0.0, 0.0, 0.0, 0.0, 0.0, 0.0, 0.0, 0.0, 0.0, 1.7151627426577647E9, 0.0, 2024-05-08 13:05:42.657
116.0, -309.1916810502626, 0.0, 0.0, 0.0, 0.0, 0.0, 0.0, 0.0, 0.002, -0.056, 0.994, 192.0, 0.0, 0.0, 0.0, 0.0, 0.0, 0.0, 0.0, 0.0, 0.0, 1.715162742657796E9, 0.0, 2024-05-08 13:05:42.657
117.0, -485.70340701382247, 0.0, 0.0, 0.0, 0.0, 0.0, 0.0, 0.0, 0.002, -0.056, 0.994, 192.0, 0.0, 0.0, 0.0, 0.0, 0.0, 0.0, 0.0, 0.0, 0.0, 1.7151627426578152E9, 0.0, 2024-05-08 13:05:42.657
118.0, -1908.8613282276785, 0.0, 0.0, 0.0, 0.0, 0.0, 0.0, 0.0, 0.002, -0.056, 0.994, 192.0, 0.0, 0.0, 0.0, 0.0, 0.0, 0.0, 0.0, 0.0, 0.0, 1.7151627426578307E9, 0.0, 2024-05-08 13:05:42.657
119.0, -2519.9580216357735, 0.0, 0.0, 0.0, 0.0, 0.0, 0.0, 0.0, 0.002, -0.056, 0.994, 192.0, 0.0, 0.0, 0.0, 0.0, 0.0, 0.0, 0.0, 0.0, 0.0, 1.7151627426578484E9, 0.0, 2024-05-08 13:05:42.657
120.0, -1468.8672386249589, 0.0, 0.0, 0.0, 0.0, 0.0, 0.0, 0.0, 0.002, -0.056, 0.994, 192.0, 0.0, 0.0, 0.0, 0.0, 0.0, 0.0, 0.0, 0.0, 0.0, 1.715162742657906E9, 0.0, 2024-05-08 13:05:42.657
121.0, -177.539906208504, 0.0, 0.0, 0.0, 0.0, 0.0, 0.0, 0.0, 0.004, -0.05, 0.988, 192.0, 0.0, 32.0, 254.0, 112.0, 30.0, 224.0, 0.0, 0.0, 0.0, 1.71516274265792E9, 0.0, 2024-05-08 13:05:42.657
122.0, -342.853408199955, 0.0, 0.0, 0.0, 0.0, 0.0, 0.0, 0.0, 0.004, -0.05, 0.988, 192.0, 0.0, 0.0, 0.0, 0.0, 0.0, 0.0, 0.0, 0.0, 0.0, 1.715162742657935E9, 0.0, 2024-05-08 13:05:42.657
123.0, -1764.3125968352076, 0.0, 0.0, 0.0, 0.0, 0.0, 0.0, 0.0, 0.004, -0.05, 0.988, 192.0, 0.0, 0.0, 0.0, 0.0, 0.0, 0.0, 0.0, 0.0, 0.0, 1.7151627426579483E9, 0.0, 2024-05-08 13:05:42.657
124.0, -2392.083691606962, 0.0, 0.0, 0.0, 0.0, 0.0, 0.0, 0.0, 0.004, -0.05, 0.988, 192.0, 0.0, 0.0, 0.0, 0.0, 0.0, 0.0, 0.0, 0.0, 0.0, 1.715162742657962E9, 0.0, 2024-05-08 13:05:42.657
125.0, -1375.8839816908815, 0.0, 0.0, 0.0, 0.0, 0.0, 0.0, 0.0, 0.004, -0.05, 0.988, 192.0, 0.0, 0.0, 0.0, 0.0, 0.0, 0.0, 0.0, 0.0, 0.0, 1.7151627426579762E9, 0.0, 2024-05-08 13:05:42.657
126.0, -135.60803361034795, 0.0, 0.0, 0.0, 0.0, 0.0, 0.0, 0.0, 0.004, -0.05, 0.988, 192.0, 0.0, 0.0, 0.0, 0.0, 0.0, 0.0, 0.0, 0.0, 0.0, 1.7151627426579916E9, 0.0, 2024-05-08 13:05:42.657
127.0, -353.29167286058345, 0.0, 0.0, 0.0, 0.0, 0.0, 0.0, 0.0, 0.004, -0.05, 0.988, 192.0, 0.0, 0.0, 0.0, 0.0, 0.0, 0.0, 0.0, 0.0, 0.0, 1.7151627426580052E9, 0.0, 2024-05-08 13:05:42.658
128.0, -1855.105382812665, 0.0, 0.0, 0.0, 0.0, 0.0, 0.0, 0.0, 0.004, -0.05, 0.988, 192.0, 0.0, 0.0, 0.0, 0.0, 0.0, 0.0, 0.0, 0.0, 0.0, 1.715162742658019E9, 0.0, 2024-05-08 13:05:42.658
129.0, -2478.450832182268, 0.0, 0.0, 0.0, 0.0, 0.0, 0.0, 0.0, 0.004, -0.05, 0.988, 192.0, 0.0, 0.0, 0.0, 0.0, 0.0, 0.0, 0.0, 0.0, 0.0, 1.715162742658033E9, 0.0, 2024-05-08 13:05:42.658
130.0, -1391.8654789764262, 0.0, 0.0, 0.0, 0.0, 0.0, 0.0, 0.0, 0.004, -0.05, 0.988, 192.0, 0.0, 0.0, 0.0, 0.0, 0.0, 0.0, 0.0, 0.0, 0.0, 1.7151627426580465E9, 0.0, 2024-05-08 13:05:42.658
131.0, -115.42440836720567, 0.0, 0.0, 0.0, 0.0, 0.0, 0.0, 0.0, -0.002, -0.048, 0.992, 192.0, 255.0, 240.0, 254.0, 128.0, 31.0, 0.0, 0.0, 0.0, 0.0, 1.71516274265806E9, 0.0, 2024-05-08 13:05:42.658
132.0, -329.0623818710306, 0.0, 0.0, 0.0, 0.0, 0.0, 0.0, 0.0, -0.002, -0.048, 0.992, 192.0, 0.0, 0.0, 0.0, 0.0, 0.0, 0.0, 0.0, 0.0, 0.0, 1.715162742658076E9, 0.0, 2024-05-08 13:05:42.658
133.0, -1796.1414809395649, 0.0, 0.0, 0.0, 0.0, 0.0, 0.0, 0.0, -0.002, -0.048, 0.992, 192.0, 0.0, 0.0, 0.0, 0.0, 0.0, 0.0, 0.0, 0.0, 0.0, 1.7151627426580896E9, 0.0, 2024-05-08 13:05:42.658
134.0, -2472.1252885014164, 0.0, 0.0, 0.0, 0.0, 0.0, 0.0, 0.0, -0.002, -0.048, 0.992, 192.0, 0.0, 0.0, 0.0, 0.0, 0.0, 0.0, 0.0, 0.0, 0.0, 1.7151627426581044E9, 0.0, 2024-05-08 13:05:42.658
135.0, -1415.8041972880599, 0.0, 0.0, 0.0, 0.0, 0.0, 0.0, 0.0, -0.002, -0.048, 0.992, 192.0, 0.0, 0.0, 0.0, 0.0, 0.0, 0.0, 0.0, 0.0, 0.0, 1.7151627426581182E9, 0.0, 2024-05-08 13:05:42.658
136.0, -117.1007892013537, 0.0, 0.0, 0.0, 0.0, 0.0, 0.0, 0.0, -0.002, -0.048, 0.992, 192.0, 0.0, 0.0, 0.0, 0.0, 0.0, 0.0, 0.0, 0.0, 0.0, 1.715162742658132E9, 0.0, 2024-05-08 13:05:42.658
137.0, -368.982597468209, 0.0, 0.0, 0.0, 0.0, 0.0, 0.0, 0.0, -0.002, -0.048, 0.992, 192.0, 0.0, 0.0, 0.0, 0.0, 0.0, 0.0, 0.0, 0.0, 0.0, 1.7151627426581533E9, 0.0, 2024-05-08 13:05:42.658
138.0, -1864.6942811839917, 0.0, 0.0, 0.0, 0.0, 0.0, 0.0, 0.0, -0.002, -0.048, 0.992, 192.0, 0.0, 0.0, 0.0, 0.0, 0.0, 0.0, 0.0, 0.0, 0.0, 1.7151627426581671E9, 0.0, 2024-05-08 13:05:42.658
139.0, -2399.683284721766, 0.0, 0.0, 0.0, 0.0, 0.0, 0.0, 0.0, -0.002, -0.048, 0.992, 192.0, 0.0, 0.0, 0.0, 0.0, 0.0, 0.0, 0.0, 0.0, 0.0, 1.7151627426581824E9, 0.0, 2024-05-08 13:05:42.658
140.0, -1404.2036419157555, 0.0, 0.0, 0.0, 0.0, 0.0, 0.0, 0.0, -0.002, -0.048, 0.992, 192.0, 0.0, 0.0, 0.0, 0.0, 0.0, 0.0, 0.0, 0.0, 0.0, 1.715162742658196E9, 0.0, 2024-05-08 13:05:42.658
141.0, -238.06843019347554, 0.0, 0.0, 0.0, 0.0, 0.0, 0.0, 0.0, -0.002, -0.054, 0.994, 192.0, 255.0, 240.0, 254.0, 80.0, 31.0, 16.0, 0.0, 0.0, 0.0, 1.7151627426582098E9, 0.0, 2024-05-08 13:05:42.658
142.0, -361.0700799310303, 0.0, 0.0, 0.0, 0.0, 0.0, 0.0, 0.0, -0.002, -0.054, 0.994, 192.0, 0.0, 0.0, 0.0, 0.0, 0.0, 0.0, 0.0, 0.0, 0.0, 1.7151627426582243E9, 0.0, 2024-05-08 13:05:42.658
143.0, -1862.839086394201, 0.0, 0.0, 0.0, 0.0, 0.0, 0.0, 0.0, -0.002, -0.054, 0.994, 192.0, 0.0, 0.0, 0.0, 0.0, 0.0, 0.0, 0.0, 0.0, 0.0, 1.715162742658238E9, 0.0, 2024-05-08 13:05:42.658
144.0, -2533.16790260886, 0.0, 0.0, 0.0, 0.0, 0.0, 0.0, 0.0, -0.002, -0.054, 0.994, 192.0, 0.0, 0.0, 0.0, 0.0, 0.0, 0.0, 0.0, 0.0, 0.0, 1.7151627426582515E9, 0.0, 2024-05-08 13:05:42.658
145.0, -1417.9052612668588, 0.0, 0.0, 0.0, 0.0, 0.0, 0.0, 0.0, -0.002, -0.054, 0.994, 192.0, 0.0, 0.0, 0.0, 0.0, 0.0, 0.0, 0.0, 0.0, 0.0, 1.7151627426582654E9, 0.0, 2024-05-08 13:05:42.658
146.0, 74.0960328693429, 0.0, 0.0, 0.0, 0.0, 0.0, 0.0, 0.0, -0.002, -0.054, 0.994, 192.0, 0.0, 0.0, 0.0, 0.0, 0.0, 0.0, 0.0, 0.0, 0.0, 1.7151627426582808E9, 0.0, 2024-05-08 13:05:42.658
147.0, 64.10480309782065, 0.0, 0.0, 0.0, 0.0, 0.0, 0.0, 0.0, -0.002, -0.054, 0.994, 192.0, 0.0, 0.0, 0.0, 0.0, 0.0, 0.0, 0.0, 0.0, 0.0, 1.7151627426582944E9, 0.0, 2024-05-08 13:05:42.658
148.0, -1520.5444718056287, 0.0, 0.0, 0.0, 0.0, 0.0, 0.0, 0.0, -0.002, -0.054, 0.994, 192.0, 0.0, 0.0, 0.0, 0.0, 0.0, 0.0, 0.0, 0.0, 0.0, 1.715162742658308E9, 0.0, 2024-05-08 13:05:42.658
149.0, -2205.7819015719774, 0.0, 0.0, 0.0, 0.0, 0.0, 0.0, 0.0, -0.002, -0.054, 0.994, 192.0, 0.0, 0.0, 0.0, 0.0, 0.0, 0.0, 0.0, 0.0, 0.0, 1.7151627426583216E9, 0.0, 2024-05-08 13:05:42.658
150.0, -1072.3249402433564, 0.0, 0.0, 0.0, 0.0, 0.0, 0.0, 0.0, -0.002, -0.054, 0.994, 192.0, 0.0, 0.0, 0.0, 0.0, 0.0, 0.0, 0.0, 0.0, 0.0, 1.7151627426583352E9, 0.0, 2024-05-08 13:05:42.658
151.0, 386.3722546544379, 0.0, 0.0, 0.0, 0.0, 0.0, 0.0, 0.0, 0.002, -0.058, 0.996, 192.0, 0.0, 16.0, 254.0, 48.0, 31.0, 32.0, 0.0, 0.0, 0.0, 1.7151627426583488E9, 0.0, 2024-05-08 13:05:42.658
152.0, 372.4471178587816, 0.0, 0.0, 0.0, 0.0, 0.0, 0.0, 0.0, 0.002, -0.058, 0.996, 192.0, 0.0, 0.0, 0.0, 0.0, 0.0, 0.0, 0.0, 0.0, 0.0, 1.7151627426583648E9, 0.0, 2024-05-08 13:05:42.658
153.0, -1149.5055138475316, 0.0, 0.0, 0.0, 0.0, 0.0, 0.0, 0.0, 0.002, -0.058, 0.996, 192.0, 0.0, 0.0, 0.0, 0.0, 0.0, 0.0, 0.0, 0.0, 0.0, 1.7151627426583784E9, 0.0, 2024-05-08 13:05:42.658
154.0, -1819.3425916841736, 0.0, 0.0, 0.0, 0.0, 0.0, 0.0, 0.0, 0.002, -0.058, 0.996, 192.0, 0.0, 0.0, 0.0, 0.0, 0.0, 0.0, 0.0, 0.0, 0.0, 1.715162742658392E9, 0.0, 2024-05-08 13:05:42.658
155.0, -616.4164085884581, 0.0, 0.0, 0.0, 0.0, 0.0, 0.0, 0.0, 0.002, -0.058, 0.996, 192.0, 0.0, 0.0, 0.0, 0.0, 0.0, 0.0, 0.0, 0.0, 0.0, 1.7151627426584132E9, 0.0, 2024-05-08 13:05:42.658
156.0, 988.14827062467, 0.0, 0.0, 0.0, 0.0, 0.0, 0.0, 0.0, 0.002, -0.058, 0.996, 192.0, 0.0, 0.0, 0.0, 0.0, 0.0, 0.0, 0.0, 0.0, 0.0, 1.7151627426584268E9, 0.0, 2024-05-08 13:05:42.658
157.0, 1033.8352362913176, 0.0, 0.0, 0.0, 0.0, 0.0, 0.0, 0.0, 0.002, -0.058, 0.996, 192.0, 0.0, 0.0, 0.0, 0.0, 0.0, 0.0, 0.0, 0.0, 0.0, 1.7151627426584404E9, 0.0, 2024-05-08 13:05:42.658
158.0, -536.330108205093, 0.0, 0.0, 0.0, 0.0, 0.0, 0.0, 0.0, 0.002, -0.058, 0.996, 192.0, 0.0, 0.0, 0.0, 0.0, 0.0, 0.0, 0.0, 0.0, 0.0, 1.715162742658454E9, 0.0, 2024-05-08 13:05:42.658
159.0, -1342.4681237301975, 0.0, 0.0, 0.0, 0.0, 0.0, 0.0, 0.0, 0.002, -0.058, 0.996, 192.0, 0.0, 0.0, 0.0, 0.0, 0.0, 0.0, 0.0, 0.0, 0.0, 1.7151627426584694E9, 0.0, 2024-05-08 13:05:42.658
160.0, -245.77978203055645, 0.0, 0.0, 0.0, 0.0, 0.0, 0.0, 0.0, 0.002, -0.058, 0.996, 192.0, 0.0, 0.0, 0.0, 0.0, 0.0, 0.0, 0.0, 0.0, 0.0, 1.715162742658484E9, 0.0, 2024-05-08 13:05:42.658
161.0, 1232.4081340322655, 0.0, 0.0, 0.0, 0.0, 0.0, 0.0, 0.0, -0.002, -0.052000000000000005, 0.996, 192.0, 255.0, 240.0, 254.0, 96.0, 31.0, 32.0, 0.0, 0.0, 0.0, 1.7151627426584976E9, 0.0, 2024-05-08 13:05:42.658
162.0, 1225.1214653398354, 0.0, 0.0, 0.0, 0.0, 0.0, 0.0, 0.0, -0.002, -0.052000000000000005, 0.996, 192.0, 0.0, 0.0, 0.0, 0.0, 0.0, 0.0, 0.0, 0.0, 0.0, 1.7151627426585197E9, 0.0, 2024-05-08 13:05:42.658
163.0, -259.5484566150256, 0.0, 0.0, 0.0, 0.0, 0.0, 0.0, 0.0, -0.002, -0.052000000000000005, 0.996, 192.0, 0.0, 0.0, 0.0, 0.0, 0.0, 0.0, 0.0, 0.0, 0.0, 1.7151627426585436E9, 0.0, 2024-05-08 13:05:42.658
164.0, -923.8870053156621, 0.0, 0.0, 0.0, 0.0, 0.0, 0.0, 0.0, -0.002, -0.052000000000000005, 0.996, 192.0, 0.0, 0.0, 0.0, 0.0, 0.0, 0.0, 0.0, 0.0, 0.0, 1.715162742658559E9, 0.0, 2024-05-08 13:05:42.658
165.0, 194.16960408325247, 0.0, 0.0, 0.0, 0.0, 0.0, 0.0, 0.0, -0.002, -0.052000000000000005, 0.996, 192.0, 0.0, 0.0, 0.0, 0.0, 0.0, 0.0, 0.0, 0.0, 0.0, 1.7151627426585746E9, 0.0, 2024-05-08 13:05:42.658
166.0, 1721.5984131811158, 0.0, 0.0, 0.0, 0.0, 0.0, 0.0, 0.0, -0.002, -0.052000000000000005, 0.996, 192.0, 0.0, 0.0, 0.0, 0.0, 0.0, 0.0, 0.0, 0.0, 0.0, 1.7151627426585884E9, 0.0, 2024-05-08 13:05:42.658
167.0, 1773.1862393839647, 0.0, 0.0, 0.0, 0.0, 0.0, 0.0, 0.0, -0.002, -0.052000000000000005, 0.996, 192.0, 0.0, 0.0, 0.0, 0.0, 0.0, 0.0, 0.0, 0.0, 0.0, 1.715162742658602E9, 0.0, 2024-05-08 13:05:42.658
168.0, 218.3318398394394, 0.0, 0.0, 0.0, 0.0, 0.0, 0.0, 0.0, -0.002, -0.052000000000000005, 0.996, 192.0, 0.0, 0.0, 0.0, 0.0, 0.0, 0.0, 0.0, 0.0, 0.0, 1.7151627426586156E9, 0.0, 2024-05-08 13:05:42.658
169.0, -598.1103298795617, 0.0, 0.0, 0.0, 0.0, 0.0, 0.0, 0.0, -0.002, -0.052000000000000005, 0.996, 192.0, 0.0, 0.0, 0.0, 0.0, 0.0, 0.0, 0.0, 0.0, 0.0, 1.7151627426586292E9, 0.0, 2024-05-08 13:05:42.658
170.0, 423.74437138371127, 0.0, 0.0, 0.0, 0.0, 0.0, 0.0, 0.0, -0.002, -0.052000000000000005, 0.996, 192.0, 0.0, 0.0, 0.0, 0.0, 0.0, 0.0, 0.0, 0.0, 0.0, 1.7151627426586428E9, 0.0, 2024-05-08 13:05:42.658
171.0, 1889.3482553181955, 0.0, 0.0, 0.0, 0.0, 0.0, 0.0, 0.0, -0.002, -0.048, 0.992, 192.0, 255.0, 240.0, 254.0, 128.0, 31.0, 0.0, 0.0, 0.0, 0.0, 1.7151627426586561E9, 0.0, 2024-05-08 13:05:42.658
172.0, 1831.8595685791456, 0.0, 0.0, 0.0, 0.0, 0.0, 0.0, 0.0, -0.002, -0.048, 0.992, 192.0, 0.0, 0.0, 0.0, 0.0, 0.0, 0.0, 0.0, 0.0, 0.0, 1.715162742658684E9, 0.0, 2024-05-08 13:05:42.658
173.0, 307.3141345160168, 0.0, 0.0, 0.0, 0.0, 0.0, 0.0, 0.0, -0.002, -0.048, 0.992, 192.0, 0.0, 0.0, 0.0, 0.0, 0.0, 0.0, 0.0, 0.0, 0.0, 1.7151627426586976E9, 0.0, 2024-05-08 13:05:42.658
174.0, -237.15200867080793, 0.0, 0.0, 0.0, 0.0, 0.0, 0.0, 0.0, -0.002, -0.048, 0.992, 192.0, 0.0, 0.0, 0.0, 0.0, 0.0, 0.0, 0.0, 0.0, 0.0, 1.7151627426587112E9, 0.0, 2024-05-08 13:05:42.658
175.0, 880.9940077059279, 0.0, 0.0, 0.0, 0.0, 0.0, 0.0, 0.0, -0.002, -0.048, 0.992, 192.0, 0.0, 0.0, 0.0, 0.0, 0.0, 0.0, 0.0, 0.0, 0.0, 1.7151627426587248E9, 0.0, 2024-05-08 13:05:42.658
176.0, 2044.0893821822863, 0.0, 0.0, 0.0, 0.0, 0.0, 0.0, 0.0, -0.002, -0.048, 0.992, 192.0, 0.0, 0.0, 0.0, 0.0, 0.0, 0.0, 0.0, 0.0, 0.0, 1.7151627426587384E9, 0.0, 2024-05-08 13:05:42.658
177.0, 1917.869081243167, 0.0, 0.0, 0.0, 0.0, 0.0, 0.0, 0.0, -0.002, -0.048, 0.992, 192.0, 0.0, 0.0, 0.0, 0.0, 0.0, 0.0, 0.0, 0.0, 0.0, 1.7151627426587517E9, 0.0, 2024-05-08 13:05:42.658
178.0, 359.43840258579286, 0.0, 0.0, 0.0, 0.0, 0.0, 0.0, 0.0, -0.002, -0.048, 0.992, 192.0, 0.0, 0.0, 0.0, 0.0, 0.0, 0.0, 0.0, 0.0, 0.0, 1.7151627426587672E9, 0.0, 2024-05-08 13:05:42.658
179.0, -347.36846057992705, 0.0, 0.0, 0.0, 0.0, 0.0, 0.0, 0.0, -0.002, -0.048, 0.992, 192.0, 0.0, 0.0, 0.0, 0.0, 0.0, 0.0, 0.0, 0.0, 0.0, 1.7151627426587806E9, 0.0, 2024-05-08 13:05:42.658
180.0, 749.4092880975352, 0.0, 0.0, 0.0, 0.0, 0.0, 0.0, 0.0, -0.002, -0.048, 0.992, 192.0, 0.0, 0.0, 0.0, 0.0, 0.0, 0.0, 0.0, 0.0, 0.0, 1.7151627426587944E9, 0.0, 2024-05-08 13:05:42.658
181.0, 2372.1682872972833, 0.0, 0.0, 0.0, 0.0, 0.0, 0.0, 0.0, -0.002, -0.048, 0.992, 192.0, 255.0, 240.0, 254.0, 128.0, 31.0, 0.0, 0.0, 0.0, 0.0, 1.7151627426588085E9, 0.0, 2024-05-08 13:05:42.658
182.0, 2659.81288669263, 0.0, 0.0, 0.0, 0.0, 0.0, 0.0, 0.0, -0.002, -0.048, 0.992, 192.0, 0.0, 0.0, 0.0, 0.0, 0.0, 0.0, 0.0, 0.0, 0.0, 1.7151627426588244E9, 0.0, 2024-05-08 13:05:42.658
183.0, 1147.7620777800178, 0.0, 0.0, 0.0, 0.0, 0.0, 0.0, 0.0, -0.002, -0.048, 0.992, 192.0, 0.0, 0.0, 0.0, 0.0, 0.0, 0.0, 0.0, 0.0, 0.0, 1.7151627426588392E9, 0.0, 2024-05-08 13:05:42.658
184.0, 270.12083174238586, 0.0, 0.0, 0.0, 0.0, 0.0, 0.0, 0.0, -0.002, -0.048, 0.992, 192.0, 0.0, 0.0, 0.0, 0.0, 0.0, 0.0, 0.0, 0.0, 0.0, 1.7151627426588528E9, 0.0, 2024-05-08 13:05:42.658
185.0, 1052.5436464004097, 0.0, 0.0, 0.0, 0.0, 0.0, 0.0, 0.0, -0.002, -0.048, 0.992, 192.0, 0.0, 0.0, 0.0, 0.0, 0.0, 0.0, 0.0, 0.0, 0.0, 1.715162742658868E9, 0.0, 2024-05-08 13:05:42.658
186.0, 2489.179669520816, 0.0, 0.0, 0.0, 0.0, 0.0, 0.0, 0.0, -0.002, -0.048, 0.992, 192.0, 0.0, 0.0, 0.0, 0.0, 0.0, 0.0, 0.0, 0.0, 0.0, 1.7151627426588817E9, 0.0, 2024-05-08 13:05:42.658
187.0, 2588.220249202281, 0.0, 0.0, 0.0, 0.0, 0.0, 0.0, 0.0, -0.002, -0.048, 0.992, 192.0, 0.0, 0.0, 0.0, 0.0, 0.0, 0.0, 0.0, 0.0, 0.0, 1.7151627426588953E9, 0.0, 2024-05-08 13:05:42.658
188.0, 1078.6057804352977, 0.0, 0.0, 0.0, 0.0, 0.0, 0.0, 0.0, -0.002, -0.048, 0.992, 192.0, 0.0, 0.0, 0.0, 0.0, 0.0, 0.0, 0.0, 0.0, 0.0, 1.7151627426589088E9, 0.0, 2024-05-08 13:05:42.658
189.0, 551.909274090442, 0.0, 0.0, 0.0, 0.0, 0.0, 0.0, 0.0, -0.002, -0.048, 0.992, 192.0, 0.0, 0.0, 0.0, 0.0, 0.0, 0.0, 0.0, 0.0, 0.0, 1.7151627426589224E9, 0.0, 2024-05-08 13:05:42.658
190.0, 1950.2344072144517, 0.0, 0.0, 0.0, 0.0, 0.0, 0.0, 0.0, -0.002, -0.048, 0.992, 192.0, 0.0, 0.0, 0.0, 0.0, 0.0, 0.0, 0.0, 0.0, 0.0, 1.7151627426589437E9, 0.0, 2024-05-08 13:05:42.658
191.0, 3163.174171826145, 0.0, 0.0, 0.0, 0.0, 0.0, 0.0, 0.0, -0.002, -0.048, 0.992, 192.0, 0.0, 0.0, 254.0, 160.0, 31.0, 0.0, 0.0, 0.0, 0.0, 1.7151627426589603E9, 0.0, 2024-05-08 13:05:42.658
192.0, 2709.7243320613306, 0.0, 0.0, 0.0, 0.0, 0.0, 0.0, 0.0, -0.002, -0.048, 0.992, 192.0, 0.0, 0.0, 0.0, 0.0, 0.0, 0.0, 0.0, 0.0, 0.0, 1.715162742658975E9, 0.0, 2024-05-08 13:05:42.658
193.0, 911.6829528430645, 0.0, 0.0, 0.0, 0.0, 0.0, 0.0, 0.0, -0.002, -0.048, 0.992, 192.0, 0.0, 0.0, 0.0, 0.0, 0.0, 0.0, 0.0, 0.0, 0.0, 1.7151627426589885E9, 0.0, 2024-05-08 13:05:42.658
194.0, 50.783163402457646, 0.0, 0.0, 0.0, 0.0, 0.0, 0.0, 0.0, -0.002, -0.048, 0.992, 192.0, 0.0, 0.0, 0.0, 0.0, 0.0, 0.0, 0.0, 0.0, 0.0, 1.715162742659002E9, 0.0, 2024-05-08 13:05:42.659
195.0, 1188.7328253665955, 0.0, 0.0, 0.0, 0.0, 0.0, 0.0, 0.0, -0.002, -0.048, 0.992, 192.0, 0.0, 0.0, 0.0, 0.0, 0.0, 0.0, 0.0, 0.0, 0.0, 1.7151627426590157E9, 0.0, 2024-05-08 13:05:42.659
196.0, 2933.979384181426, 0.0, 0.0, 0.0, 0.0, 0.0, 0.0, 0.0, -0.002, -0.048, 0.992, 192.0, 0.0, 0.0, 0.0, 0.0, 0.0, 0.0, 0.0, 0.0, 0.0, 1.71516274265903E9, 0.0, 2024-05-08 13:05:42.659
197.0, 3047.1239146141907, 0.0, 0.0, 0.0, 0.0, 0.0, 0.0, 0.0, -0.002, -0.048, 0.992, 192.0, 0.0, 0.0, 0.0, 0.0, 0.0, 0.0, 0.0, 0.0, 0.0, 1.715162742659044E9, 0.0, 2024-05-08 13:05:42.659
198.0, 1415.1559966988561, 0.0, 0.0, 0.0, 0.0, 0.0, 0.0, 0.0, -0.002, -0.048, 0.992, 192.0, 0.0, 0.0, 0.0, 0.0, 0.0, 0.0, 0.0, 0.0, 0.0, 1.715162742659064E9, 0.0, 2024-05-08 13:05:42.659
199.0, 716.5522237482338, 0.0, 0.0, 0.0, 0.0, 0.0, 0.0, 0.0, -0.002, -0.048, 0.992, 192.0, 0.0, 0.0, 0.0, 0.0, 0.0, 0.0, 0.0, 0.0, 0.0, 1.715162742659083E9, 0.0, 2024-05-08 13:05:42.659
200.0, 1992.903887379633, 0.0, 0.0, 0.0, 0.0, 0.0, 0.0, 0.0, -0.002, -0.048, 0.992, 192.0, 0.0, 0.0, 0.0, 0.0, 0.0, 0.0, 0.0, 0.0, 0.0, 1.7151627426591089E9, 0.0, 2024-05-08 13:05:42.659
201.0, 3529.921594848823, 0.0, 0.0, 0.0, 0.0, 0.0, 0.0, 0.0, 0.004, -0.05, 0.99, 192.0, 0.0, 32.0, 254.0, 112.0, 30.0, 240.0, 0.0, 0.0, 0.0, 1.7151627426591344E9, 0.0, 2024-05-08 13:05:42.659
202.0, 3635.6229943779704, 0.0, 0.0, 0.0, 0.0, 0.0, 0.0, 0.0, 0.004, -0.05, 0.99, 192.0, 0.0, 0.0, 0.0, 0.0, 0.0, 0.0, 0.0, 0.0, 0.0, 1.7151627426591585E9, 0.0, 2024-05-08 13:05:42.659
203.0, 2096.3701124632494, 0.0, 0.0, 0.0, 0.0, 0.0, 0.0, 0.0, 0.004, -0.05, 0.99, 192.0, 0.0, 0.0, 0.0, 0.0, 0.0, 0.0, 0.0, 0.0, 0.0, 1.715162742659182E9, 0.0, 2024-05-08 13:05:42.659
204.0, 1073.464879210577, 0.0, 0.0, 0.0, 0.0, 0.0, 0.0, 0.0, 0.004, -0.05, 0.99, 192.0, 0.0, 0.0, 0.0, 0.0, 0.0, 0.0, 0.0, 0.0, 0.0, 1.71516274265921E9, 0.0, 2024-05-08 13:05:42.659
205.0, 1992.2333350459737, 0.0, 0.0, 0.0, 0.0, 0.0, 0.0, 0.0, 0.004, -0.05, 0.99, 192.0, 0.0, 0.0, 0.0, 0.0, 0.0, 0.0, 0.0, 0.0, 0.0, 1.7151627426592324E9, 0.0, 2024-05-08 13:05:42.659
206.0, 3419.995715617623, 0.0, 0.0, 0.0, 0.0, 0.0, 0.0, 0.0, 0.004, -0.05, 0.99, 192.0, 0.0, 0.0, 0.0, 0.0, 0.0, 0.0, 0.0, 0.0, 0.0, 1.715162742659256E9, 0.0, 2024-05-08 13:05:42.659
207.0, 3590.3383601115183, 0.0, 0.0, 0.0, 0.0, 0.0, 0.0, 0.0, 0.004, -0.05, 0.99, 192.0, 0.0, 0.0, 0.0, 0.0, 0.0, 0.0, 0.0, 0.0, 0.0, 1.7151627426593628E9, 0.0, 2024-05-08 13:05:42.659
208.0, 2012.5287190113927, 0.0, 0.0, 0.0, 0.0, 0.0, 0.0, 0.0, 0.004, -0.05, 0.99, 192.0, 0.0, 0.0, 0.0, 0.0, 0.0, 0.0, 0.0, 0.0, 0.0, 1.7151627426593788E9, 0.0, 2024-05-08 13:05:42.659
209.0, 823.4159139890569, 0.0, 0.0, 0.0, 0.0, 0.0, 0.0, 0.0, 0.004, -0.05, 0.99, 192.0, 0.0, 0.0, 0.0, 0.0, 0.0, 0.0, 0.0, 0.0, 0.0, 1.7151627426593928E9, 0.0, 2024-05-08 13:05:42.659
210.0, 1433.8197033190374, 0.0, 0.0, 0.0, 0.0, 0.0, 0.0, 0.0, 0.004, -0.05, 0.99, 192.0, 0.0, 0.0, 0.0, 0.0, 0.0, 0.0, 0.0, 0.0, 0.0, 1.7151627426594064E9, 0.0, 2024-05-08 13:05:42.659
211.0, 2650.805133677141, 0.0, 0.0, 0.0, 0.0, 0.0, 0.0, 0.0, 0.006, -0.046, 0.996, 192.0, 0.0, 48.0, 254.0, 144.0, 31.0, 32.0, 0.0, 0.0, 0.0, 1.7151627426594226E9, 0.0, 2024-05-08 13:05:42.659
212.0, 2635.0471538361494, 0.0, 0.0, 0.0, 0.0, 0.0, 0.0, 0.0, 0.006, -0.046, 0.996, 192.0, 0.0, 0.0, 0.0, 0.0, 0.0, 0.0, 0.0, 0.0, 0.0, 1.715162742659438E9, 0.0, 2024-05-08 13:05:42.659
213.0, 929.2961274738465, 0.0, 0.0, 0.0, 0.0, 0.0, 0.0, 0.0, 0.006, -0.046, 0.996, 192.0, 0.0, 0.0, 0.0, 0.0, 0.0, 0.0, 0.0, 0.0, 0.0, 1.7151627426594517E9, 0.0, 2024-05-08 13:05:42.659
214.0, -45.39639298872864, 0.0, 0.0, 0.0, 0.0, 0.0, 0.0, 0.0, 0.006, -0.046, 0.996, 192.0, 0.0, 0.0, 0.0, 0.0, 0.0, 0.0, 0.0, 0.0, 0.0, 1.7151627426594663E9, 0.0, 2024-05-08 13:05:42.659
215.0, 686.5114792003011, 0.0, 0.0, 0.0, 0.0, 0.0, 0.0, 0.0, 0.006, -0.046, 0.996, 192.0, 0.0, 0.0, 0.0, 0.0, 0.0, 0.0, 0.0, 0.0, 0.0, 1.71516274265948E9, 0.0, 2024-05-08 13:05:42.659
216.0, 2018.004896402943, 0.0, 0.0, 0.0, 0.0, 0.0, 0.0, 0.0, 0.006, -0.046, 0.996, 192.0, 0.0, 0.0, 0.0, 0.0, 0.0, 0.0, 0.0, 0.0, 0.0, 1.715162742659494E9, 0.0, 2024-05-08 13:05:42.659
217.0, 2019.2118906035294, 0.0, 0.0, 0.0, 0.0, 0.0, 0.0, 0.0, 0.006, -0.046, 0.996, 192.0, 0.0, 0.0, 0.0, 0.0, 0.0, 0.0, 0.0, 0.0, 0.0, 1.7151627426595078E9, 0.0, 2024-05-08 13:05:42.659
218.0, 475.26514235319405, 0.0, 0.0, 0.0, 0.0, 0.0, 0.0, 0.0, 0.006, -0.046, 0.996, 192.0, 0.0, 0.0, 0.0, 0.0, 0.0, 0.0, 0.0, 0.0, 0.0, 1.7151627426595376E9, 0.0, 2024-05-08 13:05:42.659
219.0, -368.3567486234604, 0.0, 0.0, 0.0, 0.0, 0.0, 0.0, 0.0, 0.006, -0.046, 0.996, 192.0, 0.0, 0.0, 0.0, 0.0, 0.0, 0.0, 0.0, 0.0, 0.0, 1.7151627426595562E9, 0.0, 2024-05-08 13:05:42.659
220.0, 584.9675041398411, 0.0, 0.0, 0.0, 0.0, 0.0, 0.0, 0.0, 0.006, -0.046, 0.996, 192.0, 0.0, 0.0, 0.0, 0.0, 0.0, 0.0, 0.0, 0.0, 0.0, 1.7151627426595736E9, 0.0, 2024-05-08 13:05:42.659
221.0, 2069.9279987726213, 0.0, 0.0, 0.0, 0.0, 0.0, 0.0, 0.0, 0.004, -0.05, 0.996, 192.0, 0.0, 32.0, 254.0, 112.0, 31.0, 32.0, 0.0, 0.0, 0.0, 1.7151627426595907E9, 0.0, 2024-05-08 13:05:42.659
222.0, 2345.279138717549, 0.0, 0.0, 0.0, 0.0, 0.0, 0.0, 0.0, 0.004, -0.05, 0.996, 192.0, 0.0, 0.0, 0.0, 0.0, 0.0, 0.0, 0.0, 0.0, 0.0, 1.7151627426596093E9, 0.0, 2024-05-08 13:05:42.659
223.0, 821.3372017547133, 0.0, 0.0, 0.0, 0.0, 0.0, 0.0, 0.0, 0.004, -0.05, 0.996, 192.0, 0.0, 0.0, 0.0, 0.0, 0.0, 0.0, 0.0, 0.0, 0.0, 1.7151627426596267E9, 0.0, 2024-05-08 13:05:42.659
224.0, -136.7256208331133, 0.0, 0.0, 0.0, 0.0, 0.0, 0.0, 0.0, 0.004, -0.05, 0.996, 192.0, 0.0, 0.0, 0.0, 0.0, 0.0, 0.0, 0.0, 0.0, 0.0, 1.7151627426596463E9, 0.0, 2024-05-08 13:05:42.659
225.0, 807.993210314895, 0.0, 0.0, 0.0, 0.0, 0.0, 0.0, 0.0, 0.004, -0.05, 0.996, 192.0, 0.0, 0.0, 0.0, 0.0, 0.0, 0.0, 0.0, 0.0, 0.0, 1.7151627426596904E9, 0.0, 2024-05-08 13:05:42.659
226.0, 2404.9359446687636, 0.0, 0.0, 0.0, 0.0, 0.0, 0.0, 0.0, 0.004, -0.05, 0.996, 192.0, 0.0, 0.0, 0.0, 0.0, 0.0, 0.0, 0.0, 0.0, 0.0, 1.715162742659706E9, 0.0, 2024-05-08 13:05:42.659
227.0, 2697.632038311009, 0.0, 0.0, 0.0, 0.0, 0.0, 0.0, 0.0, 0.004, -0.05, 0.996, 192.0, 0.0, 0.0, 0.0, 0.0, 0.0, 0.0, 0.0, 0.0, 0.0, 1.71516274313686E9, 0.0, 2024-05-08 13:05:43.136
228.0, 1191.7726626125173, 0.0, 0.0, 0.0, 0.0, 0.0, 0.0, 0.0, 0.004, -0.05, 0.996, 192.0, 0.0, 0.0, 0.0, 0.0, 0.0, 0.0, 0.0, 0.0, 0.0, 1.715162743137008E9, 0.0, 2024-05-08 13:05:43.137
229.0, 197.34355179590605, 0.0, 0.0, 0.0, 0.0, 0.0, 0.0, 0.0, 0.004, -0.05, 0.996, 192.0, 0.0, 0.0, 0.0, 0.0, 0.0, 0.0, 0.0, 0.0, 0.0, 1.7151627431370537E9, 0.0, 2024-05-08 13:05:43.137
230.0, 1202.0321133175032, 0.0, 0.0, 0.0, 0.0, 0.0, 0.0, 0.0, 0.004, -0.05, 0.996, 192.0, 0.0, 0.0, 0.0, 0.0, 0.0, 0.0, 0.0, 0.0, 0.0, 1.715162743137097E9, 0.0, 2024-05-08 13:05:43.137
231.0, 2766.296597277713, 0.0, 0.0, 0.0, 0.0, 0.0, 0.0, 0.0, 0.002, -0.052000000000000005, 0.992, 192.0, 0.0, 16.0, 254.0, 96.0, 31.0, 0.0, 0.0, 0.0, 0.0, 1.71516274313714E9, 0.0, 2024-05-08 13:05:43.137
232.0, 2687.10436667256, 0.0, 0.0, 0.0, 0.0, 0.0, 0.0, 0.0, 0.002, -0.052000000000000005, 0.992, 192.0, 0.0, 0.0, 0.0, 0.0, 0.0, 0.0, 0.0, 0.0, 0.0, 1.7151627431371827E9, 0.0, 2024-05-08 13:05:43.137
233.0, 1193.2478777465676, 0.0, 0.0, 0.0, 0.0, 0.0, 0.0, 0.0, 0.002, -0.052000000000000005, 0.992, 192.0, 0.0, 0.0, 0.0, 0.0, 0.0, 0.0, 0.0, 0.0, 0.0, 1.715162743137226E9, 0.0, 2024-05-08 13:05:43.137
234.0, 269.3161689419948, 0.0, 0.0, 0.0, 0.0, 0.0, 0.0, 0.0, 0.002, -0.052000000000000005, 0.992, 192.0, 0.0, 0.0, 0.0, 0.0, 0.0, 0.0, 0.0, 0.0, 0.0, 1.7151627431372693E9, 0.0, 2024-05-08 13:05:43.137
235.0, 1183.7260346086068, 0.0, 0.0, 0.0, 0.0, 0.0, 0.0, 0.0, 0.002, -0.052000000000000005, 0.992, 192.0, 0.0, 0.0, 0.0, 0.0, 0.0, 0.0, 0.0, 0.0, 0.0, 1.7151627431372924E9, 0.0, 2024-05-08 13:05:43.137
236.0, 2589.851926547519, 0.0, 0.0, 0.0, 0.0, 0.0, 0.0, 0.0, 0.002, -0.052000000000000005, 0.992, 192.0, 0.0, 0.0, 0.0, 0.0, 0.0, 0.0, 0.0, 0.0, 0.0, 1.715162743137311E9, 0.0, 2024-05-08 13:05:43.137
237.0, 2681.7846514921966, 0.0, 0.0, 0.0, 0.0, 0.0, 0.0, 0.0, 0.002, -0.052000000000000005, 0.992, 192.0, 0.0, 0.0, 0.0, 0.0, 0.0, 0.0, 0.0, 0.0, 0.0, 1.715162743137333E9, 0.0, 2024-05-08 13:05:43.137
238.0, 1165.844639044361, 0.0, 0.0, 0.0, 0.0, 0.0, 0.0, 0.0, 0.002, -0.052000000000000005, 0.992, 192.0, 0.0, 0.0, 0.0, 0.0, 0.0, 0.0, 0.0, 0.0, 0.0, 1.715162743137356E9, 0.0, 2024-05-08 13:05:43.137
239.0, 302.5085094581258, 0.0, 0.0, 0.0, 0.0, 0.0, 0.0, 0.0, 0.002, -0.052000000000000005, 0.992, 192.0, 0.0, 0.0, 0.0, 0.0, 0.0, 0.0, 0.0, 0.0, 0.0, 1.7151627431373827E9, 0.0, 2024-05-08 13:05:43.137
240.0, 993.0656544048375, 0.0, 0.0, 0.0, 0.0, 0.0, 0.0, 0.0, 0.002, -0.052000000000000005, 0.992, 192.0, 0.0, 0.0, 0.0, 0.0, 0.0, 0.0, 0.0, 0.0, 0.0, 1.7151627431374035E9, 0.0, 2024-05-08 13:05:43.137
241.0, 2389.200316572227, 0.0, 0.0, 0.0, 0.0, 0.0, 0.0, 0.0, 0.006, -0.05, 0.98, 192.0, 0.0, 48.0, 254.0, 112.0, 30.0, 160.0, 0.0, 0.0, 0.0, 1.7151627431374252E9, 0.0, 2024-05-08 13:05:43.137
242.0, 2605.386388943957, 0.0, 0.0, 0.0, 0.0, 0.0, 0.0, 0.0, 0.006, -0.05, 0.98, 192.0, 0.0, 0.0, 0.0, 0.0, 0.0, 0.0, 0.0, 0.0, 0.0, 1.715162743137488E9, 0.0, 2024-05-08 13:05:43.137
243.0, 999.212384130047, 0.0, 0.0, 0.0, 0.0, 0.0, 0.0, 0.0, 0.006, -0.05, 0.98, 192.0, 0.0, 0.0, 0.0, 0.0, 0.0, 0.0, 0.0, 0.0, 0.0, 1.71516274313751E9, 0.0, 2024-05-08 13:05:43.137
244.0, 14.483930407038976, 0.0, 0.0, 0.0, 0.0, 0.0, 0.0, 0.0, 0.006, -0.05, 0.98, 192.0, 0.0, 0.0, 0.0, 0.0, 0.0, 0.0, 0.0, 0.0, 0.0, 1.7151627431375308E9, 0.0, 2024-05-08 13:05:43.137
245.0, 847.6452049786097, 0.0, 0.0, 0.0, 0.0, 0.0, 0.0, 0.0, 0.006, -0.05, 0.98, 192.0, 0.0, 0.0, 0.0, 0.0, 0.0, 0.0, 0.0, 0.0, 0.0, 1.7151627431375492E9, 0.0, 2024-05-08 13:05:43.137
246.0, 2243.9139776127313, 0.0, 0.0, 0.0, 0.0, 0.0, 0.0, 0.0, 0.006, -0.05, 0.98, 192.0, 0.0, 0.0, 0.0, 0.0, 0.0, 0.0, 0.0, 0.0, 0.0, 1.7151627431375675E9, 0.0, 2024-05-08 13:05:43.137
247.0, 2273.1277076158176, 0.0, 0.0, 0.0, 0.0, 0.0, 0.0, 0.0, 0.006, -0.05, 0.98, 192.0, 0.0, 0.0, 0.0, 0.0, 0.0, 0.0, 0.0, 0.0, 0.0, 1.715162743137586E9, 0.0, 2024-05-08 13:05:43.137
248.0, 606.648696261489, 0.0, 0.0, 0.0, 0.0, 0.0, 0.0, 0.0, 0.006, -0.05, 0.98, 192.0, 0.0, 0.0, 0.0, 0.0, 0.0, 0.0, 0.0, 0.0, 0.0, 1.7151627431376052E9, 0.0, 2024-05-08 13:05:43.137
249.0, -467.4643835382919, 0.0, 0.0, 0.0, 0.0, 0.0, 0.0, 0.0, 0.006, -0.05, 0.98, 192.0, 0.0, 0.0, 0.0, 0.0, 0.0, 0.0, 0.0, 0.0, 0.0, 1.7151627431376233E9, 0.0, 2024-05-08 13:05:43.137
