%OpenBCI Raw EXG Data
%Number of channels = 8
%Sample Rate = 250 Hz
%Board = OpenBCI_GUI$BoardCytonSerial
Sample Index, EXG Channel 0, EXG Channel 1, EXG Channel 2, EXG Channel 3, EXG Channel 4, EXG Channel 5, EXG Channel 6, EXG Channel 7, Accel Channel 0, Accel Channel 1, Accel Channel 2, Other, Other, Other, Other, Other, Other, Other, Analog Channel 0, Analog Channel 1, Analog Channel 2, Timestamp, Other, Timestamp (Formatted)
170.0, 10137.320773282145, 0.0, 0.0, 0.0, 0.0, 0.0, 0.0, 0.0, 0.0, 0.0, 0.0, 192.0, 0.0, 0.0, 0.0, 0.0, 0.0, 0.0, 0.0, 0.0, 0.0, 1.7151626639240007E9, 0.0, 2024-05-08 13:04:23.924
171.0, 9206.370616718605, 0.0, 0.0, 0.0, 0.0, 0.0, 0.0, 0.0, 0.0, 0.0, 0.0, 192.0, 0.0, 0.0, 254.0, 128.0, 31.0, 0.0, 0.0, 0.0, 0.0, 1.7151626639241197E9, 0.0, 2024-05-08 13:04:23.924
172.0, 9257.153780121062, 0.0, 0.0, 0.0, 0.0, 0.0, 0.0, 0.0, 0.0, 0.0, 0.0, 192.0, 0.0, 0.0, 0.0, 0.0, 0.0, 0.0, 0.0, 0.0, 0.0, 1.7151626639241571E9, 0.0, 2024-05-08 13:04:23.924
173.0, 10193.378948376054, 0.0, 0.0, 0.0, 0.0, 0.0, 0.0, 0.0, 0.0, 0.0, 0.0, 192.0, 0.0, 0.0, 0.0, 0.0, 0.0, 0.0, 0.0, 0.0, 0.0, 1.7151626639241912E9, 0.0, 2024-05-08 13:04:23.924
174.0, 10808.051920896998, 0.0, 0.0, 0.0, 0.0, 0.0, 0.0, 0.0, 0.0, 0.0, 0.0, 192.0, 0.0, 0.0, 0.0, 0.0, 0.0, 0.0, 0.0, 0.0, 0.0, 1.7151626639242246E9, 0.0, 2024-05-08 13:04:23.924
175.0, 10141.925232639936, 0.0, 0.0, 0.0, 0.0, 0.0, 0.0, 0.0, 0.0, 0.0, 0.0, 192.0, 0.0, 0.0, 0.0, 0.0, 0.0, 0.0, 0.0, 0.0, 0.0, 1.715162663924263E9, 0.0, 2024-05-08 13:04:23.924
176.0, 9207.979942319387, 0.0, 0.0, 0.0, 0.0, 0.0, 0.0, 0.0, 0.0, 0.0, 0.0, 192.0, 0.0, 0.0, 0.0, 0.0, 0.0, 0.0, 0.0, 0.0, 0.0, 1.715162663924307E9, 0.0, 2024-05-08 13:04:23.924
177.0, 9233.7291519319, 0.0, 0.0, 0.0, 0.0, 0.0, 0.0, 0.0, 0.0, 0.0, 0.0, 192.0, 0.0, 0.0, 0.0, 0.0, 0.0, 0.0, 0.0, 0.0, 0.0, 1.715162663924348E9, 0.0, 2024-05-08 13:04:23.924
178.0, 10166.82507596315, 0.0, 0.0, 0.0, 0.0, 0.0, 0.0, 0.0, 0.0, 0.0, 0.0, 192.0, 0.0, 0.0, 0.0, 0.0, 0.0, 0.0, 0.0, 0.0, 0.0, 1.7151626639243824E9, 0.0, 2024-05-08 13:04:23.924
179.0, 10824.18988039373, 0.0, 0.0, 0.0, 0.0, 0.0, 0.0, 0.0, 0.0, 0.0, 0.0, 192.0, 0.0, 0.0, 0.0, 0.0, 0.0, 0.0, 0.0, 0.0, 0.0, 1.7151626639244158E9, 0.0, 2024-05-08 13:04:23.924
180.0, 10178.91736971347, 0.0, 0.0, 0.0, 0.0, 0.0, 0.0, 0.0, 0.0, 0.0, 0.0, 192.0, 0.0, 0.0, 0.0, 0.0, 0.0, 0.0, 0.0, 0.0, 0.0, 1.715162663924449E9, 0.0, 2024-05-08 13:04:23.924
181.0, 9224.810805894233, 0.0, 0.0, 0.0, 0.0, 0.0, 0.0, 0.0, 0.004, -0.048, 0.996, 192.0, 0.0, 32.0, 254.0, 128.0, 31.0, 32.0, 0.0, 0.0, 0.0, 1.715162663924484E9, 0.0, 2024-05-08 13:04:23.924
182.0, 9255.11977137563, 0.0, 0.0, 0.0, 0.0, 0.0, 0.0, 0.0, 0.004, -0.048, 0.996, 192.0, 0.0, 0.0, 0.0, 0.0, 0.0, 0.0, 0.0, 0.0, 0.0, 1.715162663924523E9, 0.0, 2024-05-08 13:04:23.924
183.0, 10211.237992195844, 0.0, 0.0, 0.0, 0.0, 0.0, 0.0, 0.0, 0.004, -0.048, 0.996, 192.0, 0.0, 0.0, 0.0, 0.0, 0.0, 0.0, 0.0, 0.0, 0.0, 1.7151626639245577E9, 0.0, 2024-05-08 13:04:23.924
184.0, 10877.34232870845, 0.0, 0.0, 0.0, 0.0, 0.0, 0.0, 0.0, 0.004, -0.048, 0.996, 192.0, 0.0, 0.0, 0.0, 0.0, 0.0, 0.0, 0.0, 0.0, 0.0, 1.715162663924592E9, 0.0, 2024-05-08 13:04:23.924
185.0, 10208.488727627842, 0.0, 0.0, 0.0, 0.0, 0.0, 0.0, 0.0, 0.004, -0.048, 0.996, 192.0, 0.0, 0.0, 0.0, 0.0, 0.0, 0.0, 0.0, 0.0, 0.0, 1.7151626639246266E9, 0.0, 2024-05-08 13:04:23.924
186.0, 9250.850588184667, 0.0, 0.0, 0.0, 0.0, 0.0, 0.0, 0.0, 0.004, -0.048, 0.996, 192.0, 0.0, 0.0, 0.0, 0.0, 0.0, 0.0, 0.0, 0.0, 0.0, 1.7151626639246612E9, 0.0, 2024-05-08 13:04:23.924
187.0, 9242.088704358186, 0.0, 0.0, 0.0, 0.0, 0.0, 0.0, 0.0, 0.004, -0.048, 0.996, 192.0, 0.0, 0.0, 0.0, 0.0, 0.0, 0.0, 0.0, 0.0, 0.0, 1.715162663924696E9, 0.0, 2024-05-08 13:04:23.924
188.0, 10205.560649104196, 0.0, 0.0, 0.0, 0.0, 0.0, 0.0, 0.0, 0.004, -0.048, 0.996, 192.0, 0.0, 0.0, 0.0, 0.0, 0.0, 0.0, 0.0, 0.0, 0.0, 1.7151626639247572E9, 0.0, 2024-05-08 13:04:23.924
189.0, 10879.175171753785, 0.0, 0.0, 0.0, 0.0, 0.0, 0.0, 0.0, 0.004, -0.048, 0.996, 192.0, 0.0, 0.0, 0.0, 0.0, 0.0, 0.0, 0.0, 0.0, 0.0, 1.715162663924791E9, 0.0, 2024-05-08 13:04:23.924
190.0, 10216.222431209379, 0.0, 0.0, 0.0, 0.0, 0.0, 0.0, 0.0, 0.004, -0.048, 0.996, 192.0, 0.0, 0.0, 0.0, 0.0, 0.0, 0.0, 0.0, 0.0, 0.0, 1.7151626639248252E9, 0.0, 2024-05-08 13:04:23.924
191.0, 9254.605681253157, 0.0, 0.0, 0.0, 0.0, 0.0, 0.0, 0.0, -0.002, -0.054, 0.992, 192.0, 255.0, 240.0, 254.0, 80.0, 31.0, 0.0, 0.0, 0.0, 0.0, 1.7151626639248593E9, 0.0, 2024-05-08 13:04:23.924
192.0, 9259.567768522236, 0.0, 0.0, 0.0, 0.0, 0.0, 0.0, 0.0, -0.002, -0.054, 0.992, 192.0, 0.0, 0.0, 0.0, 0.0, 0.0, 0.0, 0.0, 0.0, 0.0, 1.7151626639249167E9, 0.0, 2024-05-08 13:04:23.924
193.0, 10204.197192692423, 0.0, 0.0, 0.0, 0.0, 0.0, 0.0, 0.0, -0.002, -0.054, 0.992, 192.0, 0.0, 0.0, 0.0, 0.0, 0.0, 0.0, 0.0, 0.0, 0.0, 1.7151626639249513E9, 0.0, 2024-05-08 13:04:23.924
194.0, 10874.682471118269, 0.0, 0.0, 0.0, 0.0, 0.0, 0.0, 0.0, -0.002, -0.054, 0.992, 192.0, 0.0, 0.0, 0.0, 0.0, 0.0, 0.0, 0.0, 0.0, 0.0, 1.7151626639249892E9, 0.0, 2024-05-08 13:04:23.924
195.0, 10235.847262841138, 0.0, 0.0, 0.0, 0.0, 0.0, 0.0, 0.0, -0.002, -0.054, 0.992, 192.0, 0.0, 0.0, 0.0, 0.0, 0.0, 0.0, 0.0, 0.0, 0.0, 1.715162663925024E9, 0.0, 2024-05-08 13:04:23.925
196.0, 9286.300454890783, 0.0, 0.0, 0.0, 0.0, 0.0, 0.0, 0.0, -0.002, -0.054, 0.992, 192.0, 0.0, 0.0, 0.0, 0.0, 0.0, 0.0, 0.0, 0.0, 0.0, 1.7151626639250581E9, 0.0, 2024-05-08 13:04:23.925
197.0, 9247.341364305183, 0.0, 0.0, 0.0, 0.0, 0.0, 0.0, 0.0, -0.002, -0.054, 0.992, 192.0, 0.0, 0.0, 0.0, 0.0, 0.0, 0.0, 0.0, 0.0, 0.0, 1.7151626639250956E9, 0.0, 2024-05-08 13:04:23.925
198.0, 10171.675404509951, 0.0, 0.0, 0.0, 0.0, 0.0, 0.0, 0.0, -0.002, -0.054, 0.992, 192.0, 0.0, 0.0, 0.0, 0.0, 0.0, 0.0, 0.0, 0.0, 0.0, 1.71516266392513E9, 0.0, 2024-05-08 13:04:23.925
199.0, 10843.635898069848, 0.0, 0.0, 0.0, 0.0, 0.0, 0.0, 0.0, -0.002, -0.054, 0.992, 192.0, 0.0, 0.0, 0.0, 0.0, 0.0, 0.0, 0.0, 0.0, 0.0, 1.7151626639251642E9, 0.0, 2024-05-08 13:04:23.925
200.0, 10220.916297544993, 0.0, 0.0, 0.0, 0.0, 0.0, 0.0, 0.0, -0.002, -0.054, 0.992, 192.0, 0.0, 0.0, 0.0, 0.0, 0.0, 0.0, 0.0, 0.0, 0.0, 1.7151626639251995E9, 0.0, 2024-05-08 13:04:23.925
201.0, 9256.25971034285, 0.0, 0.0, 0.0, 0.0, 0.0, 0.0, 0.0, 0.006, -0.052000000000000005, 0.99, 192.0, 0.0, 48.0, 254.0, 96.0, 30.0, 240.0, 0.0, 0.0, 0.0, 1.7151626639252336E9, 0.0, 2024-05-08 13:04:23.925
202.0, 9230.219928052418, 0.0, 0.0, 0.0, 0.0, 0.0, 0.0, 0.0, 0.006, -0.052000000000000005, 0.99, 192.0, 0.0, 0.0, 0.0, 0.0, 0.0, 0.0, 0.0, 0.0, 0.0, 1.7151626639252691E9, 0.0, 2024-05-08 13:04:23.925
203.0, 10177.1515819015, 0.0, 0.0, 0.0, 0.0, 0.0, 0.0, 0.0, 0.006, -0.052000000000000005, 0.99, 192.0, 0.0, 0.0, 0.0, 0.0, 0.0, 0.0, 0.0, 0.0, 0.0, 1.7151626639253032E9, 0.0, 2024-05-08 13:04:23.925
204.0, 10833.555261320504, 0.0, 0.0, 0.0, 0.0, 0.0, 0.0, 0.0, 0.006, -0.052000000000000005, 0.99, 192.0, 0.0, 0.0, 0.0, 0.0, 0.0, 0.0, 0.0, 0.0, 0.0, 1.715162663925337E9, 0.0, 2024-05-08 13:04:23.925
205.0, 10196.3070268997, 0.0, 0.0, 0.0, 0.0, 0.0, 0.0, 0.0, 0.006, -0.052000000000000005, 0.99, 192.0, 0.0, 0.0, 0.0, 0.0, 0.0, 0.0, 0.0, 0.0, 0.0, 1.715162663925371E9, 0.0, 2024-05-08 13:04:23.925
206.0, 9275.996300696886, 0.0, 0.0, 0.0, 0.0, 0.0, 0.0, 0.0, 0.006, -0.052000000000000005, 0.99, 192.0, 0.0, 0.0, 0.0, 0.0, 0.0, 0.0, 0.0, 0.0, 0.0, 1.7151626639254289E9, 0.0, 2024-05-08 13:04:23.925
207.0, 9260.97592842292, 0.0, 0.0, 0.0, 0.0, 0.0, 0.0, 0.0, 0.006, -0.052000000000000005, 0.99, 192.0, 0.0, 0.0, 0.0, 0.0, 0.0, 0.0, 0.0, 0.0, 0.0, 1.7151626639254644E9, 0.0, 2024-05-08 13:04:23.925
208.0, 10156.945604913904, 0.0, 0.0, 0.0, 0.0, 0.0, 0.0, 0.0, 0.006, -0.052000000000000005, 0.99, 192.0, 0.0, 0.0, 0.0, 0.0, 0.0, 0.0, 0.0, 0.0, 0.0, 1.7151626639254985E9, 0.0, 2024-05-08 13:04:23.925
209.0, 10853.850645285922, 0.0, 0.0, 0.0, 0.0, 0.0, 0.0, 0.0, 0.006, -0.052000000000000005, 0.99, 192.0, 0.0, 0.0, 0.0, 0.0, 0.0, 0.0, 0.0, 0.0, 0.0, 1.7151626639255323E9, 0.0, 2024-05-08 13:04:23.925
210.0, 10248.923033347492, 0.0, 0.0, 0.0, 0.0, 0.0, 0.0, 0.0, 0.006, -0.052000000000000005, 0.99, 192.0, 0.0, 0.0, 0.0, 0.0, 0.0, 0.0, 0.0, 0.0, 0.0, 1.7151626639255664E9, 0.0, 2024-05-08 13:04:23.925
211.0, 9276.041004185798, 0.0, 0.0, 0.0, 0.0, 0.0, 0.0, 0.0, 0.008, -0.054, 1.0, 192.0, 0.0, 64.0, 254.0, 80.0, 31.0, 64.0, 0.0, 0.0, 0.0, 1.7151626639256003E9, 0.0, 2024-05-08 13:04:23.925
212.0, 9233.080951342698, 0.0, 0.0, 0.0, 0.0, 0.0, 0.0, 0.0, 0.008, -0.054, 1.0, 192.0, 0.0, 0.0, 0.0, 0.0, 0.0, 0.0, 0.0, 0.0, 0.0, 1.7151626639256363E9, 0.0, 2024-05-08 13:04:23.925
213.0, 10148.764866443262, 0.0, 0.0, 0.0, 0.0, 0.0, 0.0, 0.0, 0.008, -0.054, 1.0, 192.0, 0.0, 0.0, 0.0, 0.0, 0.0, 0.0, 0.0, 0.0, 0.0, 1.7151626639256785E9, 0.0, 2024-05-08 13:04:23.925
214.0, 10824.972191449666, 0.0, 0.0, 0.0, 0.0, 0.0, 0.0, 0.0, 0.008, -0.054, 1.0, 192.0, 0.0, 0.0, 0.0, 0.0, 0.0, 0.0, 0.0, 0.0, 0.0, 1.715162663925712E9, 0.0, 2024-05-08 13:04:23.925
215.0, 10231.01928603879, 0.0, 0.0, 0.0, 0.0, 0.0, 0.0, 0.0, 0.008, -0.054, 1.0, 192.0, 0.0, 0.0, 0.0, 0.0, 0.0, 0.0, 0.0, 0.0, 0.0, 1.7151626639257457E9, 0.0, 2024-05-08 13:04:23.925
216.0, 9284.758184523367, 0.0, 0.0, 0.0, 0.0, 0.0, 0.0, 0.0, 0.008, -0.054, 1.0, 192.0, 0.0, 0.0, 0.0, 0.0, 0.0, 0.0, 0.0, 0.0, 0.0, 1.7151626639257796E9, 0.0, 2024-05-08 13:04:23.925
217.0, 9226.084855328185, 0.0, 0.0, 0.0, 0.0, 0.0, 0.0, 0.0, 0.008, -0.054, 1.0, 192.0, 0.0, 0.0, 0.0, 0.0, 0.0, 0.0, 0.0, 0.0, 0.0, 1.7151626639258132E9, 0.0, 2024-05-08 13:04:23.925
218.0, 10148.407238531976, 0.0, 0.0, 0.0, 0.0, 0.0, 0.0, 0.0, 0.008, -0.054, 1.0, 192.0, 0.0, 0.0, 0.0, 0.0, 0.0, 0.0, 0.0, 0.0, 0.0, 1.7151626639258468E9, 0.0, 2024-05-08 13:04:23.925
219.0, 10868.669851859791, 0.0, 0.0, 0.0, 0.0, 0.0, 0.0, 0.0, 0.008, -0.054, 1.0, 192.0, 0.0, 0.0, 0.0, 0.0, 0.0, 0.0, 0.0, 0.0, 0.0, 1.715162663925881E9, 0.0, 2024-05-08 13:04:23.925
220.0, 10269.307824290732, 0.0, 0.0, 0.0, 0.0, 0.0, 0.0, 0.0, 0.008, -0.054, 1.0, 192.0, 0.0, 0.0, 0.0, 0.0, 0.0, 0.0, 0.0, 0.0, 0.0, 1.7151626639259148E9, 0.0, 2024-05-08 13:04:23.925
221.0, 9298.012768985363, 0.0, 0.0, 0.0, 0.0, 0.0, 0.0, 0.0, 0.004, -0.05, 0.992, 192.0, 0.0, 32.0, 254.0, 112.0, 31.0, 0.0, 0.0, 0.0, 0.0, 1.7151626639259634E9, 0.0, 2024-05-08 13:04:23.925
222.0, 9243.474512514415, 0.0, 0.0, 0.0, 0.0, 0.0, 0.0, 0.0, 0.004, -0.05, 0.992, 192.0, 0.0, 0.0, 0.0, 0.0, 0.0, 0.0, 0.0, 0.0, 0.0, 1.7151626639260197E9, 0.0, 2024-05-08 13:04:23.926
223.0, 10143.065171607157, 0.0, 0.0, 0.0, 0.0, 0.0, 0.0, 0.0, 0.004, -0.05, 0.992, 192.0, 0.0, 0.0, 0.0, 0.0, 0.0, 0.0, 0.0, 0.0, 0.0, 1.71516266392609E9, 0.0, 2024-05-08 13:04:23.926
224.0, 10842.898290502822, 0.0, 0.0, 0.0, 0.0, 0.0, 0.0, 0.0, 0.004, -0.05, 0.992, 192.0, 0.0, 0.0, 0.0, 0.0, 0.0, 0.0, 0.0, 0.0, 0.0, 1.7151626639261236E9, 0.0, 2024-05-08 13:04:23.926
225.0, 10255.36033575062, 0.0, 0.0, 0.0, 0.0, 0.0, 0.0, 0.0, 0.004, -0.05, 0.992, 192.0, 0.0, 0.0, 0.0, 0.0, 0.0, 0.0, 0.0, 0.0, 0.0, 1.7151626639261572E9, 0.0, 2024-05-08 13:04:23.926
226.0, 9298.102175963186, 0.0, 0.0, 0.0, 0.0, 0.0, 0.0, 0.0, 0.004, -0.05, 0.992, 192.0, 0.0, 0.0, 0.0, 0.0, 0.0, 0.0, 0.0, 0.0, 0.0, 1.715162663926192E9, 0.0, 2024-05-08 13:04:23.926
227.0, 9225.794282650266, 0.0, 0.0, 0.0, 0.0, 0.0, 0.0, 0.0, 0.004, -0.05, 0.992, 192.0, 0.0, 0.0, 0.0, 0.0, 0.0, 0.0, 0.0, 0.0, 0.0, 1.7151626639262252E9, 0.0, 2024-05-08 13:04:23.926
228.0, 10134.593860458597, 0.0, 0.0, 0.0, 0.0, 0.0, 0.0, 0.0, 0.004, -0.05, 0.992, 192.0, 0.0, 0.0, 0.0, 0.0, 0.0, 0.0, 0.0, 0.0, 0.0, 1.7151626639262586E9, 0.0, 2024-05-08 13:04:23.926
229.0, 10858.969194766189, 0.0, 0.0, 0.0, 0.0, 0.0, 0.0, 0.0, 0.004, -0.05, 0.992, 192.0, 0.0, 0.0, 0.0, 0.0, 0.0, 0.0, 0.0, 0.0, 0.0, 1.7151626639262917E9, 0.0, 2024-05-08 13:04:23.926
230.0, 10292.039548401779, 0.0, 0.0, 0.0, 0.0, 0.0, 0.0, 0.0, 0.004, -0.05, 0.992, 192.0, 0.0, 0.0, 0.0, 0.0, 0.0, 0.0, 0.0, 0.0, 0.0, 1.7151626639263244E9, 0.0, 2024-05-08 13:04:23.926
231.0, 9319.202222728994, 0.0, 0.0, 0.0, 0.0, 0.0, 0.0, 0.0, 0.002, -0.052000000000000005, 0.986, 192.0, 0.0, 16.0, 254.0, 96.0, 30.0, 208.0, 0.0, 0.0, 0.0, 1.7151626639263575E9, 0.0, 2024-05-08 13:04:23.926
232.0, 9219.178166291496, 0.0, 0.0, 0.0, 0.0, 0.0, 0.0, 0.0, 0.002, -0.052000000000000005, 0.986, 192.0, 0.0, 0.0, 0.0, 0.0, 0.0, 0.0, 0.0, 0.0, 0.0, 1.7151626639263942E9, 0.0, 2024-05-08 13:04:23.926
233.0, 10115.326656738122, 0.0, 0.0, 0.0, 0.0, 0.0, 0.0, 0.0, 0.002, -0.052000000000000005, 0.986, 192.0, 0.0, 0.0, 0.0, 0.0, 0.0, 0.0, 0.0, 0.0, 0.0, 1.7151626639264276E9, 0.0, 2024-05-08 13:04:23.926
234.0, 10835.321049132473, 0.0, 0.0, 0.0, 0.0, 0.0, 0.0, 0.0, 0.002, -0.052000000000000005, 0.986, 192.0, 0.0, 0.0, 0.0, 0.0, 0.0, 0.0, 0.0, 0.0, 0.0, 1.7151626639264677E9, 0.0, 2024-05-08 13:04:23.926
235.0, 10276.303920305243, 0.0, 0.0, 0.0, 0.0, 0.0, 0.0, 0.0, 0.002, -0.052000000000000005, 0.986, 192.0, 0.0, 0.0, 0.0, 0.0, 0.0, 0.0, 0.0, 0.0, 0.0, 1.7151626639265006E9, 0.0, 2024-05-08 13:04:23.926
236.0, 9298.83978353021, 0.0, 0.0, 0.0, 0.0, 0.0, 0.0, 0.0, 0.002, -0.052000000000000005, 0.986, 192.0, 0.0, 0.0, 0.0, 0.0, 0.0, 0.0, 0.0, 0.0, 0.0, 1.715162663926534E9, 0.0, 2024-05-08 13:04:23.926
237.0, 9197.34051195866, 0.0, 0.0, 0.0, 0.0, 0.0, 0.0, 0.0, 0.002, -0.052000000000000005, 0.986, 192.0, 0.0, 0.0, 0.0, 0.0, 0.0, 0.0, 0.0, 0.0, 0.0, 1.7151626639265673E9, 0.0, 2024-05-08 13:04:23.926
238.0, 10098.875772819016, 0.0, 0.0, 0.0, 0.0, 0.0, 0.0, 0.0, 0.002, -0.052000000000000005, 0.986, 192.0, 0.0, 0.0, 0.0, 0.0, 0.0, 0.0, 0.0, 0.0, 0.0, 1.7151626639266007E9, 0.0, 2024-05-08 13:04:23.926
239.0, 10855.638784842347, 0.0, 0.0, 0.0, 0.0, 0.0, 0.0, 0.0, 0.002, -0.052000000000000005, 0.986, 192.0, 0.0, 0.0, 0.0, 0.0, 0.0, 0.0, 0.0, 0.0, 0.0, 1.7151626639266355E9, 0.0, 2024-05-08 13:04:23.926
240.0, 10284.1270308646, 0.0, 0.0, 0.0, 0.0, 0.0, 0.0, 0.0, 0.002, -0.052000000000000005, 0.986, 192.0, 0.0, 0.0, 0.0, 0.0, 0.0, 0.0, 0.0, 0.0, 0.0, 1.715162663926669E9, 0.0, 2024-05-08 13:04:23.926
241.0, 9278.723213520434, 0.0, 0.0, 0.0, 0.0, 0.0, 0.0, 0.0, 0.004, -0.05, 0.99, 192.0, 0.0, 32.0, 254.0, 112.0, 30.0, 240.0, 0.0, 0.0, 0.0, 1.7151626639267197E9, 0.0, 2024-05-08 13:04:23.926
242.0, 9206.258857996329, 0.0, 0.0, 0.0, 0.0, 0.0, 0.0, 0.0, 0.004, -0.05, 0.99, 192.0, 0.0, 0.0, 0.0, 0.0, 0.0, 0.0, 0.0, 0.0, 0.0, 1.7151626639267552E9, 0.0, 2024-05-08 13:04:23.926
243.0, 10100.373339697522, 0.0, 0.0, 0.0, 0.0, 0.0, 0.0, 0.0, 0.004, -0.05, 0.99, 192.0, 0.0, 0.0, 0.0, 0.0, 0.0, 0.0, 0.0, 0.0, 0.0, 1.7151626639267893E9, 0.0, 2024-05-08 13:04:23.926
244.0, 10815.070368655965, 0.0, 0.0, 0.0, 0.0, 0.0, 0.0, 0.0, 0.004, -0.05, 0.99, 192.0, 0.0, 0.0, 0.0, 0.0, 0.0, 0.0, 0.0, 0.0, 0.0, 1.7151626639268227E9, 0.0, 2024-05-08 13:04:23.926
245.0, 10259.294242774755, 0.0, 0.0, 0.0, 0.0, 0.0, 0.0, 0.0, 0.004, -0.05, 0.99, 192.0, 0.0, 0.0, 0.0, 0.0, 0.0, 0.0, 0.0, 0.0, 0.0, 1.715162663926858E9, 0.0, 2024-05-08 13:04:23.926
246.0, 9296.202277684484, 0.0, 0.0, 0.0, 0.0, 0.0, 0.0, 0.0, 0.004, -0.05, 0.99, 192.0, 0.0, 0.0, 0.0, 0.0, 0.0, 0.0, 0.0, 0.0, 0.0, 1.715162663926891E9, 0.0, 2024-05-08 13:04:23.926
247.0, 9205.29773298475, 0.0, 0.0, 0.0, 0.0, 0.0, 0.0, 0.0, 0.004, -0.05, 0.99, 192.0, 0.0, 0.0, 0.0, 0.0, 0.0, 0.0, 0.0, 0.0, 0.0, 1.7151626639269323E9, 0.0, 2024-05-08 13:04:23.926
248.0, 10104.95544731086, 0.0, 0.0, 0.0, 0.0, 0.0, 0.0, 0.0, 0.004, -0.05, 0.99, 192.0, 0.0, 0.0, 0.0, 0.0, 0.0, 0.0, 0.0, 0.0, 0.0, 1.7151626639269671E9, 0.0, 2024-05-08 13:04:23.926
249.0, 10873.989567040155, 0.0, 0.0, 0.0, 0.0, 0.0, 0.0, 0.0, 0.004, -0.05, 0.99, 192.0, 0.0, 0.0, 0.0, 0.0, 0.0, 0.0, 0.0, 0.0, 0.0, 1.7151626639270003E9, 0.0, 2024-05-08 13:04:23.927
250.0, 10318.436958603497, 0.0, 0.0, 0.0, 0.0, 0.0, 0.0, 0.0, 0.004, -0.05, 0.99, 192.0, 0.0, 0.0, 0.0, 0.0, 0.0, 0.0, 0.0, 0.0, 0.0, 1.7151626639270337E9, 0.0, 2024-05-08 13:04:23.927
251.0, 9317.212917472472, 0.0, 0.0, 0.0, 0.0, 0.0, 0.0, 0.0, 0.002, -0.048, 0.988, 192.0, 0.0, 16.0, 254.0, 128.0, 30.0, 224.0, 0.0, 0.0, 0.0, 1.7151626639270675E9, 0.0, 2024-05-08 13:04:23.927
252.0, 9185.96347403091, 0.0, 0.0, 0.0, 0.0, 0.0, 0.0, 0.0, 0.002, -0.048, 0.988, 192.0, 0.0, 0.0, 0.0, 0.0, 0.0, 0.0, 0.0, 0.0, 0.0, 1.7151626639271035E9, 0.0, 2024-05-08 13:04:23.927
253.0, 10093.444298916376, 0.0, 0.0, 0.0, 0.0, 0.0, 0.0, 0.0, 0.002, -0.048, 0.988, 192.0, 0.0, 0.0, 0.0, 0.0, 0.0, 0.0, 0.0, 0.0, 0.0, 1.7151626639271371E9, 0.0, 2024-05-08 13:04:23.927
254.0, 10835.924546232765, 0.0, 0.0, 0.0, 0.0, 0.0, 0.0, 0.0, 0.002, -0.048, 0.988, 192.0, 0.0, 0.0, 0.0, 0.0, 0.0, 0.0, 0.0, 0.0, 0.0, 1.7151626639271705E9, 0.0, 2024-05-08 13:04:23.927
255.0, 10298.65566476055, 0.0, 0.0, 0.0, 0.0, 0.0, 0.0, 0.0, 0.002, -0.048, 0.988, 192.0, 0.0, 0.0, 0.0, 0.0, 0.0, 0.0, 0.0, 0.0, 0.0, 1.715162663927204E9, 0.0, 2024-05-08 13:04:23.927
0.0, 9321.437397174526, 0.0, 0.0, 0.0, 0.0, 0.0, 0.0, 0.0, 0.002, -0.048, 0.988, 192.0, 0.0, 0.0, 0.0, 0.0, 0.0, 0.0, 0.0, 0.0, 0.0, 1.7151626639272408E9, 0.0, 2024-05-08 13:04:23.927
1.0, 9205.655360896035, 0.0, 0.0, 0.0, 0.0, 0.0, 0.0, 0.0, 0.002, -0.048, 0.988, 192.0, 0.0, 0.0, 0.0, 0.0, 0.0, 0.0, 0.0, 0.0, 0.0, 1.7151626639272735E9, 0.0, 2024-05-08 13:04:23.927
2.0, 10093.287836705189, 0.0, 0.0, 0.0, 0.0, 0.0, 0.0, 0.0, 0.002, -0.048, 0.988, 192.0, 0.0, 0.0, 0.0, 0.0, 0.0, 0.0, 0.0, 0.0, 0.0, 1.7151626639273272E9, 0.0, 2024-05-08 13:04:23.927
3.0, 10839.545528834526, 0.0, 0.0, 0.0, 0.0, 0.0, 0.0, 0.0, 0.002, -0.048, 0.988, 192.0, 0.0, 0.0, 0.0, 0.0, 0.0, 0.0, 0.0, 0.0, 0.0, 1.7151626639273608E9, 0.0, 2024-05-08 13:04:23.927
4.0, 10338.70999082446, 0.0, 0.0, 0.0, 0.0, 0.0, 0.0, 0.0, 0.002, -0.048, 0.988, 192.0, 0.0, 0.0, 0.0, 0.0, 0.0, 0.0, 0.0, 0.0, 0.0, 1.715162663927394E9, 0.0, 2024-05-08 13:04:23.927
5.0, 9330.42279844556, 0.0, 0.0, 0.0, 0.0, 0.0, 0.0, 0.0, 0.002, -0.052000000000000005, 0.986, 192.0, 0.0, 16.0, 254.0, 96.0, 30.0, 208.0, 0.0, 0.0, 0.0, 1.7151626639274273E9, 0.0, 2024-05-08 13:04:23.927
6.0, 9184.242389707852, 0.0, 0.0, 0.0, 0.0, 0.0, 0.0, 0.0, 0.002, -0.052000000000000005, 0.986, 192.0, 0.0, 0.0, 0.0, 0.0, 0.0, 0.0, 0.0, 0.0, 0.0, 1.715162663927462E9, 0.0, 2024-05-08 13:04:23.927
7.0, 10065.102286947047, 0.0, 0.0, 0.0, 0.0, 0.0, 0.0, 0.0, 0.002, -0.052000000000000005, 0.986, 192.0, 0.0, 0.0, 0.0, 0.0, 0.0, 0.0, 0.0, 0.0, 0.0, 1.7151626639274955E9, 0.0, 2024-05-08 13:04:23.927
8.0, 10840.037267212543, 0.0, 0.0, 0.0, 0.0, 0.0, 0.0, 0.0, 0.002, -0.052000000000000005, 0.986, 192.0, 0.0, 0.0, 0.0, 0.0, 0.0, 0.0, 0.0, 0.0, 0.0, 1.7151626639275303E9, 0.0, 2024-05-08 13:04:23.927
9.0, 10380.910084356081, 0.0, 0.0, 0.0, 0.0, 0.0, 0.0, 0.0, 0.002, -0.052000000000000005, 0.986, 192.0, 0.0, 0.0, 0.0, 0.0, 0.0, 0.0, 0.0, 0.0, 0.0, 1.715162663927565E9, 0.0, 2024-05-08 13:04:23.927
10.0, 9369.650109964623, 0.0, 0.0, 0.0, 0.0, 0.0, 0.0, 0.0, 0.002, -0.052000000000000005, 0.986, 192.0, 0.0, 0.0, 0.0, 0.0, 0.0, 0.0, 0.0, 0.0, 0.0, 1.7151626639275987E9, 0.0, 2024-05-08 13:04:23.927
11.0, 9206.996465563354, 0.0, 0.0, 0.0, 0.0, 0.0, 0.0, 0.0, 0.002, -0.052000000000000005, 0.986, 192.0, 0.0, 0.0, 0.0, 0.0, 0.0, 0.0, 0.0, 0.0, 0.0, 1.7151626639276323E9, 0.0, 2024-05-08 13:04:23.927
12.0, 10114.343179982088, 0.0, 0.0, 0.0, 0.0, 0.0, 0.0, 0.0, 0.002, -0.052000000000000005, 0.986, 192.0, 0.0, 0.0, 0.0, 0.0, 0.0, 0.0, 0.0, 0.0, 0.0, 1.715162663927667E9, 0.0, 2024-05-08 13:04:23.927
13.0, 10899.358796996929, 0.0, 0.0, 0.0, 0.0, 0.0, 0.0, 0.0, 0.002, -0.052000000000000005, 0.986, 192.0, 0.0, 0.0, 0.0, 0.0, 0.0, 0.0, 0.0, 0.0, 0.0, 1.7151626639277008E9, 0.0, 2024-05-08 13:04:23.927
14.0, 10395.103442085201, 0.0, 0.0, 0.0, 0.0, 0.0, 0.0, 0.0, 0.002, -0.052000000000000005, 0.986, 192.0, 0.0, 0.0, 0.0, 0.0, 0.0, 0.0, 0.0, 0.0, 0.0, 1.7151626639277349E9, 0.0, 2024-05-08 13:04:23.927
15.0, 9385.743365972445, 0.0, 0.0, 0.0, 0.0, 0.0, 0.0, 0.0, 0.004, -0.052000000000000005, 0.99, 192.0, 0.0, 32.0, 254.0, 96.0, 30.0, 240.0, 0.0, 0.0, 0.0, 1.71516266392777E9, 0.0, 2024-05-08 13:04:23.927
16.0, 9263.144047635085, 0.0, 0.0, 0.0, 0.0, 0.0, 0.0, 0.0, 0.004, -0.052000000000000005, 0.99, 192.0, 0.0, 0.0, 0.0, 0.0, 0.0, 0.0, 0.0, 0.0, 0.0, 1.7151626639278052E9, 0.0, 2024-05-08 13:04:23.927
17.0, 10142.506377995775, 0.0, 0.0, 0.0, 0.0, 0.0, 0.0, 0.0, 0.004, -0.052000000000000005, 0.99, 192.0, 0.0, 0.0, 0.0, 0.0, 0.0, 0.0, 0.0, 0.0, 0.0, 1.7151626639278388E9, 0.0, 2024-05-08 13:04:23.927
18.0, 10905.617285444414, 0.0, 0.0, 0.0, 0.0, 0.0, 0.0, 0.0, 0.004, -0.052000000000000005, 0.99, 192.0, 0.0, 0.0, 0.0, 0.0, 0.0, 0.0, 0.0, 0.0, 0.0, 1.7151626639278724E9, 0.0, 2024-05-08 13:04:23.927
19.0, 10441.013925196401, 0.0, 0.0, 0.0, 0.0, 0.0, 0.0, 0.0, 0.004, -0.052000000000000005, 0.99, 192.0, 0.0, 0.0, 0.0, 0.0, 0.0, 0.0, 0.0, 0.0, 0.0, 1.7151626639279127E9, 0.0, 2024-05-08 13:04:23.927
20.0, 9458.20772149655, 0.0, 0.0, 0.0, 0.0, 0.0, 0.0, 0.0, 0.004, -0.052000000000000005, 0.99, 192.0, 0.0, 0.0, 0.0, 0.0, 0.0, 0.0, 0.0, 0.0, 0.0, 1.7151626639280007E9, 0.0, 2024-05-08 13:04:23.928
21.0, 9272.062393672752, 0.0, 0.0, 0.0, 0.0, 0.0, 0.0, 0.0, 0.004, -0.052000000000000005, 0.99, 192.0, 0.0, 0.0, 0.0, 0.0, 0.0, 0.0, 0.0, 0.0, 0.0, 1.715162663928044E9, 0.0, 2024-05-08 13:04:23.928
22.0, 10167.20505561889, 0.0, 0.0, 0.0, 0.0, 0.0, 0.0, 0.0, 0.004, -0.052000000000000005, 0.99, 192.0, 0.0, 0.0, 0.0, 0.0, 0.0, 0.0, 0.0, 0.0, 0.0, 1.7151626639280782E9, 0.0, 2024-05-08 13:04:23.928
23.0, 10942.251794606662, 0.0, 0.0, 0.0, 0.0, 0.0, 0.0, 0.0, 0.004, -0.052000000000000005, 0.99, 192.0, 0.0, 0.0, 0.0, 0.0, 0.0, 0.0, 0.0, 0.0, 0.0, 1.7151626639281127E9, 0.0, 2024-05-08 13:04:23.928
24.0, 10477.402565169641, 0.0, 0.0, 0.0, 0.0, 0.0, 0.0, 0.0, 0.004, -0.052000000000000005, 0.99, 192.0, 0.0, 0.0, 0.0, 0.0, 0.0, 0.0, 0.0, 0.0, 0.0, 1.7151626639281468E9, 0.0, 2024-05-08 13:04:23.928
25.0, 9508.052111631885, 0.0, 0.0, 0.0, 0.0, 0.0, 0.0, 0.0, -0.002, -0.056, 0.994, 192.0, 255.0, 240.0, 254.0, 64.0, 31.0, 16.0, 0.0, 0.0, 0.0, 1.71516266392818E9, 0.0, 2024-05-08 13:04:23.928
26.0, 9318.531670395336, 0.0, 0.0, 0.0, 0.0, 0.0, 0.0, 0.0, -0.002, -0.056, 0.994, 192.0, 0.0, 0.0, 0.0, 0.0, 0.0, 0.0, 0.0, 0.0, 0.0, 1.7151626639282153E9, 0.0, 2024-05-08 13:04:23.928
27.0, 10178.962073202381, 0.0, 0.0, 0.0, 0.0, 0.0, 0.0, 0.0, -0.002, -0.056, 0.994, 192.0, 0.0, 0.0, 0.0, 0.0, 0.0, 0.0, 0.0, 0.0, 0.0, 1.715162663928249E9, 0.0, 2024-05-08 13:04:23.928
28.0, 10972.02431822113, 0.0, 0.0, 0.0, 0.0, 0.0, 0.0, 0.0, -0.002, -0.056, 0.994, 192.0, 0.0, 0.0, 0.0, 0.0, 0.0, 0.0, 0.0, 0.0, 0.0, 1.7151626639282825E9, 0.0, 2024-05-08 13:04:23.928
29.0, 10507.59977192876, 0.0, 0.0, 0.0, 0.0, 0.0, 0.0, 0.0, -0.002, -0.056, 0.994, 192.0, 0.0, 0.0, 0.0, 0.0, 0.0, 0.0, 0.0, 0.0, 0.0, 1.7151626639283156E9, 0.0, 2024-05-08 13:04:23.928
30.0, 9492.741166679998, 0.0, 0.0, 0.0, 0.0, 0.0, 0.0, 0.0, -0.002, -0.056, 0.994, 192.0, 0.0, 0.0, 0.0, 0.0, 0.0, 0.0, 0.0, 0.0, 0.0, 1.7151626639283488E9, 0.0, 2024-05-08 13:04:23.928
31.0, 9318.978705284442, 0.0, 0.0, 0.0, 0.0, 0.0, 0.0, 0.0, -0.002, -0.056, 0.994, 192.0, 0.0, 0.0, 0.0, 0.0, 0.0, 0.0, 0.0, 0.0, 0.0, 1.7151626639283829E9, 0.0, 2024-05-08 13:04:23.928
32.0, 10216.289486442744, 0.0, 0.0, 0.0, 0.0, 0.0, 0.0, 0.0, -0.002, -0.056, 0.994, 192.0, 0.0, 0.0, 0.0, 0.0, 0.0, 0.0, 0.0, 0.0, 0.0, 1.7151626639284172E9, 0.0, 2024-05-08 13:04:23.928
33.0, 11000.388681934915, 0.0, 0.0, 0.0, 0.0, 0.0, 0.0, 0.0, -0.002, -0.056, 0.994, 192.0, 0.0, 0.0, 0.0, 0.0, 0.0, 0.0, 0.0, 0.0, 0.0, 1.7151626639284513E9, 0.0, 2024-05-08 13:04:23.928
34.0, 10534.578327486317, 0.0, 0.0, 0.0, 0.0, 0.0, 0.0, 0.0, -0.002, -0.056, 0.994, 192.0, 0.0, 0.0, 0.0, 0.0, 0.0, 0.0, 0.0, 0.0, 0.0, 1.7151626639284868E9, 0.0, 2024-05-08 13:04:23.928
35.0, 9539.992754458519, 0.0, 0.0, 0.0, 0.0, 0.0, 0.0, 0.0, 0.002, -0.054, 0.994, 192.0, 0.0, 16.0, 254.0, 80.0, 31.0, 16.0, 0.0, 0.0, 0.0, 1.7151626639285204E9, 0.0, 2024-05-08 13:04:23.928
0.0, 0.0, 0.0, 0.0, 0.0, 0.0, 0.0, 0.0, 0.0, 0.002, -0.054, 0.994, 192.0, 0.0, 0.0, 0.0, 0.0, 0.0, 0.0, 0.0, 0.0, 0.0, 1.715162664004782E9, 0.0, 2024-05-08 13:04:24.004
1.0, 5331.516901435483, 0.0, 0.0, 0.0, 0.0, 0.0, 0.0, 0.0, 0.002, -0.054, 0.994, 192.0, 0.0, 0.0, 254.0, 128.0, 31.0, 16.0, 0.0, 0.0, 0.0, 1.715162664486749E9, 0.0, 2024-05-08 13:04:24.486
2.0, 8198.083424339704, 0.0, 0.0, 0.0, 0.0, 0.0, 0.0, 0.0, 0.002, -0.054, 0.994, 192.0, 0.0, 0.0, 0.0, 0.0, 0.0, 0.0, 0.0, 0.0, 0.0, 1.7151626644868686E9, 0.0, 2024-05-08 13:04:24.486
3.0, 7494.539915864458, 0.0, 0.0, 0.0, 0.0, 0.0, 0.0, 0.0, 0.002, -0.054, 0.994, 192.0, 0.0, 0.0, 0.0, 0.0, 0.0, 0.0, 0.0, 0.0, 0.0, 1.7151626644869535E9, 0.0, 2024-05-08 13:04:24.486
4.0, 4064.7094326865, 0.0, 0.0, 0.0, 0.0, 0.0, 0.0, 0.0, 0.002, -0.054, 0.994, 192.0, 0.0, 0.0, 0.0, 0.0, 0.0, 0.0, 0.0, 0.0, 0.0, 1.7151626644870377E9, 0.0, 2024-05-08 13:04:24.487
5.0, 2750.7844866257296, 0.0, 0.0, 0.0, 0.0, 0.0, 0.0, 0.0, 0.002, -0.054, 0.994, 192.0, 0.0, 0.0, 0.0, 0.0, 0.0, 0.0, 0.0, 0.0, 0.0, 1.7151626644871223E9, 0.0, 2024-05-08 13:04:24.487
6.0, 5260.9524441900785, 0.0, 0.0, 0.0, 0.0, 0.0, 0.0, 0.0, 0.002, -0.054, 0.994, 192.0, 0.0, 0.0, 0.0, 0.0, 0.0, 0.0, 0.0, 0.0, 0.0, 1.715162664487208E9, 0.0, 2024-05-08 13:04:24.487
7.0, 8068.666823943476, 0.0, 0.0, 0.0, 0.0, 0.0, 0.0, 0.0, 0.002, -0.054, 0.994, 192.0, 0.0, 0.0, 0.0, 0.0, 0.0, 0.0, 0.0, 0.0, 0.0, 1.7151626644872918E9, 0.0, 2024-05-08 13:04:24.487
8.0, 7447.690659486135, 0.0, 0.0, 0.0, 0.0, 0.0, 0.0, 0.0, 0.004, -0.046, 0.994, 192.0, 0.0, 32.0, 254.0, 144.0, 31.0, 16.0, 0.0, 0.0, 0.0, 1.715162664487348E9, 0.0, 2024-05-08 13:04:24.487
9.0, 4130.647078829656, 0.0, 0.0, 0.0, 0.0, 0.0, 0.0, 0.0, 0.004, -0.046, 0.994, 192.0, 0.0, 0.0, 0.0, 0.0, 0.0, 0.0, 0.0, 0.0, 0.0, 1.7151626644873977E9, 0.0, 2024-05-08 13:04:24.487
10.0, 2827.9427084854497, 0.0, 0.0, 0.0, 0.0, 0.0, 0.0, 0.0, 0.004, -0.046, 0.994, 192.0, 0.0, 0.0, 0.0, 0.0, 0.0, 0.0, 0.0, 0.0, 0.0, 1.7151626644874456E9, 0.0, 2024-05-08 13:04:24.487
11.0, 5278.118583931754, 0.0, 0.0, 0.0, 0.0, 0.0, 0.0, 0.0, 0.004, -0.046, 0.994, 192.0, 0.0, 0.0, 0.0, 0.0, 0.0, 0.0, 0.0, 0.0, 0.0, 1.715162664487496E9, 0.0, 2024-05-08 13:04:24.487
12.0, 8057.669765671464, 0.0, 0.0, 0.0, 0.0, 0.0, 0.0, 0.0, 0.004, -0.046, 0.994, 192.0, 0.0, 0.0, 0.0, 0.0, 0.0, 0.0, 0.0, 0.0, 0.0, 1.7151626644875436E9, 0.0, 2024-05-08 13:04:24.487
13.0, 7492.505907119025, 0.0, 0.0, 0.0, 0.0, 0.0, 0.0, 0.0, 0.004, -0.046, 0.994, 192.0, 0.0, 0.0, 0.0, 0.0, 0.0, 0.0, 0.0, 0.0, 0.0, 1.7151626644875915E9, 0.0, 2024-05-08 13:04:24.487
14.0, 4186.951123112574, 0.0, 0.0, 0.0, 0.0, 0.0, 0.0, 0.0, 0.004, -0.046, 0.994, 192.0, 0.0, 0.0, 0.0, 0.0, 0.0, 0.0, 0.0, 0.0, 0.0, 1.7151626644876475E9, 0.0, 2024-05-08 13:04:24.487
15.0, 2834.9164527555054, 0.0, 0.0, 0.0, 0.0, 0.0, 0.0, 0.0, 0.004, -0.046, 0.994, 192.0, 0.0, 0.0, 0.0, 0.0, 0.0, 0.0, 0.0, 0.0, 0.0, 1.7151626644876952E9, 0.0, 2024-05-08 13:04:24.487
16.0, 5210.325742998808, 0.0, 0.0, 0.0, 0.0, 0.0, 0.0, 0.0, 0.004, -0.046, 0.994, 192.0, 0.0, 0.0, 0.0, 0.0, 0.0, 0.0, 0.0, 0.0, 0.0, 1.715162664487744E9, 0.0, 2024-05-08 13:04:24.487
17.0, 7964.552398270655, 0.0, 0.0, 0.0, 0.0, 0.0, 0.0, 0.0, 0.004, -0.046, 0.994, 192.0, 0.0, 0.0, 0.0, 0.0, 0.0, 0.0, 0.0, 0.0, 0.0, 1.7151626644877954E9, 0.0, 2024-05-08 13:04:24.487
18.0, 7456.720764246079, 0.0, 0.0, 0.0, 0.0, 0.0, 0.0, 0.0, 0.004, -0.044, 0.996, 192.0, 0.0, 32.0, 254.0, 160.0, 31.0, 32.0, 0.0, 0.0, 0.0, 1.7151626644878483E9, 0.0, 2024-05-08 13:04:24.487
19.0, 4181.094966065284, 0.0, 0.0, 0.0, 0.0, 0.0, 0.0, 0.0, 0.004, -0.044, 0.996, 192.0, 0.0, 0.0, 0.0, 0.0, 0.0, 0.0, 0.0, 0.0, 0.0, 1.7151626644879694E9, 0.0, 2024-05-08 13:04:24.487
20.0, 2843.924205770994, 0.0, 0.0, 0.0, 0.0, 0.0, 0.0, 0.0, 0.004, -0.044, 0.996, 192.0, 0.0, 0.0, 0.0, 0.0, 0.0, 0.0, 0.0, 0.0, 0.0, 1.71516266448802E9, 0.0, 2024-05-08 13:04:24.488
21.0, 5233.169225832132, 0.0, 0.0, 0.0, 0.0, 0.0, 0.0, 0.0, 0.004, -0.044, 0.996, 192.0, 0.0, 0.0, 0.0, 0.0, 0.0, 0.0, 0.0, 0.0, 0.0, 1.7151626644880705E9, 0.0, 2024-05-08 13:04:24.488
22.0, 8004.271448167736, 0.0, 0.0, 0.0, 0.0, 0.0, 0.0, 0.0, 0.004, -0.044, 0.996, 192.0, 0.0, 0.0, 0.0, 0.0, 0.0, 0.0, 0.0, 0.0, 0.0, 1.7151626644881215E9, 0.0, 2024-05-08 13:04:24.488
23.0, 7525.340619723871, 0.0, 0.0, 0.0, 0.0, 0.0, 0.0, 0.0, 0.004, -0.044, 0.996, 192.0, 0.0, 0.0, 0.0, 0.0, 0.0, 0.0, 0.0, 0.0, 0.0, 1.7151626644881752E9, 0.0, 2024-05-08 13:04:24.488
24.0, 4323.743799179054, 0.0, 0.0, 0.0, 0.0, 0.0, 0.0, 0.0, 0.004, -0.044, 0.996, 192.0, 0.0, 0.0, 0.0, 0.0, 0.0, 0.0, 0.0, 0.0, 0.0, 1.7151626644882264E9, 0.0, 2024-05-08 13:04:24.488
25.0, 3009.6400391626407, 0.0, 0.0, 0.0, 0.0, 0.0, 0.0, 0.0, 0.004, -0.044, 0.996, 192.0, 0.0, 0.0, 0.0, 0.0, 0.0, 0.0, 0.0, 0.0, 0.0, 1.7151626644882758E9, 0.0, 2024-05-08 13:04:24.488
26.0, 5367.905541408723, 0.0, 0.0, 0.0, 0.0, 0.0, 0.0, 0.0, 0.004, -0.044, 0.996, 192.0, 0.0, 0.0, 0.0, 0.0, 0.0, 0.0, 0.0, 0.0, 0.0, 1.7151626644883275E9, 0.0, 2024-05-08 13:04:24.488
27.0, 8117.863013489607, 0.0, 0.0, 0.0, 0.0, 0.0, 0.0, 0.0, 0.004, -0.044, 0.996, 192.0, 0.0, 0.0, 0.0, 0.0, 0.0, 0.0, 0.0, 0.0, 0.0, 1.715162664488381E9, 0.0, 2024-05-08 13:04:24.488
28.0, 7669.0623365714955, 0.0, 0.0, 0.0, 0.0, 0.0, 0.0, 0.0, 0.004, -0.042, 0.994, 192.0, 0.0, 32.0, 254.0, 176.0, 31.0, 16.0, 0.0, 0.0, 0.0, 1.7151626644884353E9, 0.0, 2024-05-08 13:04:24.488
29.0, 4490.3537023489125, 0.0, 0.0, 0.0, 0.0, 0.0, 0.0, 0.0, 0.004, -0.042, 0.994, 192.0, 0.0, 0.0, 0.0, 0.0, 0.0, 0.0, 0.0, 0.0, 0.0, 1.715162664488492E9, 0.0, 2024-05-08 13:04:24.488
30.0, 3120.035305027402, 0.0, 0.0, 0.0, 0.0, 0.0, 0.0, 0.0, 0.004, -0.042, 0.994, 192.0, 0.0, 0.0, 0.0, 0.0, 0.0, 0.0, 0.0, 0.0, 0.0, 1.7151626644885476E9, 0.0, 2024-05-08 13:04:24.488
31.0, 5402.170765658709, 0.0, 0.0, 0.0, 0.0, 0.0, 0.0, 0.0, 0.004, -0.042, 0.994, 192.0, 0.0, 0.0, 0.0, 0.0, 0.0, 0.0, 0.0, 0.0, 0.0, 1.715162664488601E9, 0.0, 2024-05-08 13:04:24.488
32.0, 8141.734676567874, 0.0, 0.0, 0.0, 0.0, 0.0, 0.0, 0.0, 0.004, -0.042, 0.994, 192.0, 0.0, 0.0, 0.0, 0.0, 0.0, 0.0, 0.0, 0.0, 0.0, 1.7151626644886644E9, 0.0, 2024-05-08 13:04:24.488
33.0, 7758.715183581732, 0.0, 0.0, 0.0, 0.0, 0.0, 0.0, 0.0, 0.004, -0.042, 0.994, 192.0, 0.0, 0.0, 0.0, 0.0, 0.0, 0.0, 0.0, 0.0, 0.0, 1.715162664488718E9, 0.0, 2024-05-08 13:04:24.488
34.0, 4593.819927432529, 0.0, 0.0, 0.0, 0.0, 0.0, 0.0, 0.0, 0.004, -0.042, 0.994, 192.0, 0.0, 0.0, 0.0, 0.0, 0.0, 0.0, 0.0, 0.0, 0.0, 1.715162664488767E9, 0.0, 2024-05-08 13:04:24.488
35.0, 3218.4947393530297, 0.0, 0.0, 0.0, 0.0, 0.0, 0.0, 0.0, 0.004, -0.042, 0.994, 192.0, 0.0, 0.0, 0.0, 0.0, 0.0, 0.0, 0.0, 0.0, 0.0, 1.715162664488816E9, 0.0, 2024-05-08 13:04:24.488
36.0, 5465.850885611879, 0.0, 0.0, 0.0, 0.0, 0.0, 0.0, 0.0, 0.004, -0.042, 0.994, 192.0, 0.0, 0.0, 0.0, 0.0, 0.0, 0.0, 0.0, 0.0, 0.0, 1.7151626644889295E9, 0.0, 2024-05-08 13:04:24.488
37.0, 8167.5285896692985, 0.0, 0.0, 0.0, 0.0, 0.0, 0.0, 0.0, 0.004, -0.042, 0.994, 192.0, 0.0, 0.0, 0.0, 0.0, 0.0, 0.0, 0.0, 0.0, 0.0, 1.7151626644889781E9, 0.0, 2024-05-08 13:04:24.488
38.0, 7803.73159691472, 0.0, 0.0, 0.0, 0.0, 0.0, 0.0, 0.0, 0.004, -0.044, 0.998, 192.0, 0.0, 32.0, 254.0, 160.0, 31.0, 48.0, 0.0, 0.0, 0.0, 1.7151626644890285E9, 0.0, 2024-05-08 13:04:24.489
39.0, 4652.068573483059, 0.0, 0.0, 0.0, 0.0, 0.0, 0.0, 0.0, 0.004, -0.044, 0.998, 192.0, 0.0, 0.0, 0.0, 0.0, 0.0, 0.0, 0.0, 0.0, 0.0, 1.715162664489083E9, 0.0, 2024-05-08 13:04:24.489
40.0, 3266.5733416763956, 0.0, 0.0, 0.0, 0.0, 0.0, 0.0, 0.0, 0.004, -0.044, 0.998, 192.0, 0.0, 0.0, 0.0, 0.0, 0.0, 0.0, 0.0, 0.0, 0.0, 1.715162664489139E9, 0.0, 2024-05-08 13:04:24.489
41.0, 5500.741958706612, 0.0, 0.0, 0.0, 0.0, 0.0, 0.0, 0.0, 0.004, -0.044, 0.998, 192.0, 0.0, 0.0, 0.0, 0.0, 0.0, 0.0, 0.0, 0.0, 0.0, 1.7151626644891877E9, 0.0, 2024-05-08 13:04:24.489
42.0, 8230.292288099801, 0.0, 0.0, 0.0, 0.0, 0.0, 0.0, 0.0, 0.004, -0.044, 0.998, 192.0, 0.0, 0.0, 0.0, 0.0, 0.0, 0.0, 0.0, 0.0, 0.0, 1.715162664489235E9, 0.0, 2024-05-08 13:04:24.489
43.0, 7900.5146504062, 0.0, 0.0, 0.0, 0.0, 0.0, 0.0, 0.0, 0.004, -0.044, 0.998, 192.0, 0.0, 0.0, 0.0, 0.0, 0.0, 0.0, 0.0, 0.0, 0.0, 1.715162664489287E9, 0.0, 2024-05-08 13:04:24.489
44.0, 4731.216100599301, 0.0, 0.0, 0.0, 0.0, 0.0, 0.0, 0.0, 0.004, -0.044, 0.998, 192.0, 0.0, 0.0, 0.0, 0.0, 0.0, 0.0, 0.0, 0.0, 0.0, 1.7151626644893444E9, 0.0, 2024-05-08 13:04:24.489
45.0, 3292.166089077722, 0.0, 0.0, 0.0, 0.0, 0.0, 0.0, 0.0, 0.004, -0.044, 0.998, 192.0, 0.0, 0.0, 0.0, 0.0, 0.0, 0.0, 0.0, 0.0, 0.0, 1.7151626644894042E9, 0.0, 2024-05-08 13:04:24.489
46.0, 5503.334761063428, 0.0, 0.0, 0.0, 0.0, 0.0, 0.0, 0.0, 0.004, -0.044, 0.998, 192.0, 0.0, 0.0, 0.0, 0.0, 0.0, 0.0, 0.0, 0.0, 0.0, 1.715162664489464E9, 0.0, 2024-05-08 13:04:24.489
47.0, 8268.267901929368, 0.0, 0.0, 0.0, 0.0, 0.0, 0.0, 0.0, 0.004, -0.044, 0.998, 192.0, 0.0, 0.0, 0.0, 0.0, 0.0, 0.0, 0.0, 0.0, 0.0, 1.7151626644895227E9, 0.0, 2024-05-08 13:04:24.489
48.0, 7995.15193642997, 0.0, 0.0, 0.0, 0.0, 0.0, 0.0, 0.0, -0.002, -0.044, 0.996, 192.0, 255.0, 240.0, 254.0, 160.0, 31.0, 32.0, 0.0, 0.0, 0.0, 1.715162664489582E9, 0.0, 2024-05-08 13:04:24.489
49.0, 4810.229517248812, 0.0, 0.0, 0.0, 0.0, 0.0, 0.0, 0.0, -0.002, -0.044, 0.996, 192.0, 0.0, 0.0, 0.0, 0.0, 0.0, 0.0, 0.0, 0.0, 0.0, 1.7151626644896634E9, 0.0, 2024-05-08 13:04:24.489
50.0, 3310.807443953448, 0.0, 0.0, 0.0, 0.0, 0.0, 0.0, 0.0, -0.002, -0.044, 0.996, 192.0, 0.0, 0.0, 0.0, 0.0, 0.0, 0.0, 0.0, 0.0, 0.0, 1.7151626644897208E9, 0.0, 2024-05-08 13:04:24.489
51.0, 5496.048092370998, 0.0, 0.0, 0.0, 0.0, 0.0, 0.0, 0.0, -0.002, -0.044, 0.996, 192.0, 0.0, 0.0, 0.0, 0.0, 0.0, 0.0, 0.0, 0.0, 0.0, 1.715162664489778E9, 0.0, 2024-05-08 13:04:24.489
52.0, 8283.69060560353, 0.0, 0.0, 0.0, 0.0, 0.0, 0.0, 0.0, -0.002, -0.044, 0.996, 192.0, 0.0, 0.0, 0.0, 0.0, 0.0, 0.0, 0.0, 0.0, 0.0, 1.715162664489836E9, 0.0, 2024-05-08 13:04:24.489
53.0, 8047.700887644397, 0.0, 0.0, 0.0, 0.0, 0.0, 0.0, 0.0, -0.002, -0.044, 0.996, 192.0, 0.0, 0.0, 0.0, 0.0, 0.0, 0.0, 0.0, 0.0, 0.0, 1.7151626644898996E9, 0.0, 2024-05-08 13:04:24.489
54.0, 4881.7550995057945, 0.0, 0.0, 0.0, 0.0, 0.0, 0.0, 0.0, -0.002, -0.044, 0.996, 192.0, 0.0, 0.0, 0.0, 0.0, 0.0, 0.0, 0.0, 0.0, 0.0, 1.715162664490085E9, 0.0, 2024-05-08 13:04:24.490
55.0, 3362.3729184118415, 0.0, 0.0, 0.0, 0.0, 0.0, 0.0, 0.0, -0.002, -0.044, 0.996, 192.0, 0.0, 0.0, 0.0, 0.0, 0.0, 0.0, 0.0, 0.0, 0.0, 1.7151626644901462E9, 0.0, 2024-05-08 13:04:24.490
56.0, 5533.733133522646, 0.0, 0.0, 0.0, 0.0, 0.0, 0.0, 0.0, -0.002, -0.044, 0.996, 192.0, 0.0, 0.0, 0.0, 0.0, 0.0, 0.0, 0.0, 0.0, 0.0, 1.7151626644902048E9, 0.0, 2024-05-08 13:04:24.490
57.0, 8380.60776956174, 0.0, 0.0, 0.0, 0.0, 0.0, 0.0, 0.0, -0.002, -0.044, 0.996, 192.0, 0.0, 0.0, 0.0, 0.0, 0.0, 0.0, 0.0, 0.0, 0.0, 1.7151626644902632E9, 0.0, 2024-05-08 13:04:24.490
58.0, 8199.692749940485, 0.0, 0.0, 0.0, 0.0, 0.0, 0.0, 0.0, 0.004, -0.046, 0.99, 192.0, 0.0, 32.0, 254.0, 144.0, 30.0, 240.0, 0.0, 0.0, 0.0, 1.7151626644903216E9, 0.0, 2024-05-08 13:04:24.490
59.0, 4996.486603794886, 0.0, 0.0, 0.0, 0.0, 0.0, 0.0, 0.0, 0.004, -0.046, 0.99, 192.0, 0.0, 0.0, 0.0, 0.0, 0.0, 0.0, 0.0, 0.0, 0.0, 1.715162664490383E9, 0.0, 2024-05-08 13:04:24.490
60.0, 3394.537078683028, 0.0, 0.0, 0.0, 0.0, 0.0, 0.0, 0.0, 0.004, -0.046, 0.99, 192.0, 0.0, 0.0, 0.0, 0.0, 0.0, 0.0, 0.0, 0.0, 0.0, 1.7151626644904485E9, 0.0, 2024-05-08 13:04:24.490
61.0, 5553.983813999154, 0.0, 0.0, 0.0, 0.0, 0.0, 0.0, 0.0, 0.004, -0.046, 0.99, 192.0, 0.0, 0.0, 0.0, 0.0, 0.0, 0.0, 0.0, 0.0, 0.0, 1.7151626644905064E9, 0.0, 2024-05-08 13:04:24.490
62.0, 8402.490127383486, 0.0, 0.0, 0.0, 0.0, 0.0, 0.0, 0.0, 0.004, -0.046, 0.99, 192.0, 0.0, 0.0, 0.0, 0.0, 0.0, 0.0, 0.0, 0.0, 0.0, 1.7151626644905672E9, 0.0, 2024-05-08 13:04:24.490
63.0, 8227.207747364968, 0.0, 0.0, 0.0, 0.0, 0.0, 0.0, 0.0, 0.004, -0.046, 0.99, 192.0, 0.0, 0.0, 0.0, 0.0, 0.0, 0.0, 0.0, 0.0, 0.0, 1.7151626644906383E9, 0.0, 2024-05-08 13:04:24.490
64.0, 4951.537245695263, 0.0, 0.0, 0.0, 0.0, 0.0, 0.0, 0.0, 0.004, -0.046, 0.99, 192.0, 0.0, 0.0, 0.0, 0.0, 0.0, 0.0, 0.0, 0.0, 0.0, 1.7151626644907303E9, 0.0, 2024-05-08 13:04:24.490
65.0, 3266.55098993194, 0.0, 0.0, 0.0, 0.0, 0.0, 0.0, 0.0, 0.004, -0.046, 0.99, 192.0, 0.0, 0.0, 0.0, 0.0, 0.0, 0.0, 0.0, 0.0, 0.0, 1.715162664490837E9, 0.0, 2024-05-08 13:04:24.490
66.0, 5405.858803493835, 0.0, 0.0, 0.0, 0.0, 0.0, 0.0, 0.0, 0.004, -0.046, 0.99, 192.0, 0.0, 0.0, 0.0, 0.0, 0.0, 0.0, 0.0, 0.0, 0.0, 1.715162664490882E9, 0.0, 2024-05-08 13:04:24.490
67.0, 8329.958716626015, 0.0, 0.0, 0.0, 0.0, 0.0, 0.0, 0.0, 0.004, -0.046, 0.99, 192.0, 0.0, 0.0, 0.0, 0.0, 0.0, 0.0, 0.0, 0.0, 0.0, 1.7151626644909208E9, 0.0, 2024-05-08 13:04:24.490
68.0, 8192.562543459242, 0.0, 0.0, 0.0, 0.0, 0.0, 0.0, 0.0, 0.004, -0.048, 0.986, 192.0, 0.0, 32.0, 254.0, 128.0, 30.0, 208.0, 0.0, 0.0, 0.0, 1.7151626644909804E9, 0.0, 2024-05-08 13:04:24.490
69.0, 4871.920331945459, 0.0, 0.0, 0.0, 0.0, 0.0, 0.0, 0.0, 0.004, -0.048, 0.986, 192.0, 0.0, 0.0, 0.0, 0.0, 0.0, 0.0, 0.0, 0.0, 0.0, 1.715162664491026E9, 0.0, 2024-05-08 13:04:24.491
70.0, 3139.458970959064, 0.0, 0.0, 0.0, 0.0, 0.0, 0.0, 0.0, 0.004, -0.048, 0.986, 192.0, 0.0, 0.0, 0.0, 0.0, 0.0, 0.0, 0.0, 0.0, 0.0, 1.7151626644910612E9, 0.0, 2024-05-08 13:04:24.491
71.0, 5269.446107083096, 0.0, 0.0, 0.0, 0.0, 0.0, 0.0, 0.0, 0.004, -0.048, 0.986, 192.0, 0.0, 0.0, 0.0, 0.0, 0.0, 0.0, 0.0, 0.0, 0.0, 1.715162664491155E9, 0.0, 2024-05-08 13:04:24.491
72.0, 8210.756863445862, 0.0, 0.0, 0.0, 0.0, 0.0, 0.0, 0.0, 0.004, -0.048, 0.986, 192.0, 0.0, 0.0, 0.0, 0.0, 0.0, 0.0, 0.0, 0.0, 0.0, 1.7151626644911976E9, 0.0, 2024-05-08 13:04:24.491
73.0, 8114.152623910025, 0.0, 0.0, 0.0, 0.0, 0.0, 0.0, 0.0, 0.004, -0.048, 0.986, 192.0, 0.0, 0.0, 0.0, 0.0, 0.0, 0.0, 0.0, 0.0, 0.0, 1.715162664491222E9, 0.0, 2024-05-08 13:04:24.491
74.0, 4744.917719950405, 0.0, 0.0, 0.0, 0.0, 0.0, 0.0, 0.0, 0.004, -0.048, 0.986, 192.0, 0.0, 0.0, 0.0, 0.0, 0.0, 0.0, 0.0, 0.0, 0.0, 1.7151626644912384E9, 0.0, 2024-05-08 13:04:24.491
75.0, 2888.5606394482425, 0.0, 0.0, 0.0, 0.0, 0.0, 0.0, 0.0, 0.004, -0.048, 0.986, 192.0, 0.0, 0.0, 0.0, 0.0, 0.0, 0.0, 0.0, 0.0, 0.0, 1.7151626644912567E9, 0.0, 2024-05-08 13:04:24.491
76.0, 4900.843489270626, 0.0, 0.0, 0.0, 0.0, 0.0, 0.0, 0.0, 0.004, -0.048, 0.986, 192.0, 0.0, 0.0, 0.0, 0.0, 0.0, 0.0, 0.0, 0.0, 0.0, 1.7151626644912724E9, 0.0, 2024-05-08 13:04:24.491
77.0, 7782.340977470992, 0.0, 0.0, 0.0, 0.0, 0.0, 0.0, 0.0, 0.004, -0.048, 0.986, 192.0, 0.0, 0.0, 0.0, 0.0, 0.0, 0.0, 0.0, 0.0, 0.0, 1.7151626644912884E9, 0.0, 2024-05-08 13:04:24.491
78.0, 7671.476324972668, 0.0, 0.0, 0.0, 0.0, 0.0, 0.0, 0.0, 0.002, -0.048, 0.988, 192.0, 0.0, 16.0, 254.0, 128.0, 30.0, 224.0, 0.0, 0.0, 0.0, 1.7151626644913063E9, 0.0, 2024-05-08 13:04:24.491
79.0, 4277.587446878844, 0.0, 0.0, 0.0, 0.0, 0.0, 0.0, 0.0, 0.002, -0.048, 0.988, 192.0, 0.0, 0.0, 0.0, 0.0, 0.0, 0.0, 0.0, 0.0, 0.0, 1.7151626644913228E9, 0.0, 2024-05-08 13:04:24.491
80.0, 2423.085561166473, 0.0, 0.0, 0.0, 0.0, 0.0, 0.0, 0.0, 0.002, -0.048, 0.988, 192.0, 0.0, 0.0, 0.0, 0.0, 0.0, 0.0, 0.0, 0.0, 0.0, 1.7151626644913387E9, 0.0, 2024-05-08 13:04:24.491
81.0, 4508.279801402068, 0.0, 0.0, 0.0, 0.0, 0.0, 0.0, 0.0, 0.002, -0.048, 0.988, 192.0, 0.0, 0.0, 0.0, 0.0, 0.0, 0.0, 0.0, 0.0, 0.0, 1.7151626644913564E9, 0.0, 2024-05-08 13:04:24.491
82.0, 7559.6505474627675, 0.0, 0.0, 0.0, 0.0, 0.0, 0.0, 0.0, 0.002, -0.048, 0.988, 192.0, 0.0, 0.0, 0.0, 0.0, 0.0, 0.0, 0.0, 0.0, 0.0, 1.7151626644913723E9, 0.0, 2024-05-08 13:04:24.491
83.0, 7610.567821331957, 0.0, 0.0, 0.0, 0.0, 0.0, 0.0, 0.0, 0.002, -0.048, 0.988, 192.0, 0.0, 0.0, 0.0, 0.0, 0.0, 0.0, 0.0, 0.0, 0.0, 1.7151626644913883E9, 0.0, 2024-05-08 13:04:24.491
84.0, 4331.790427182964, 0.0, 0.0, 0.0, 0.0, 0.0, 0.0, 0.0, 0.002, -0.048, 0.988, 192.0, 0.0, 0.0, 0.0, 0.0, 0.0, 0.0, 0.0, 0.0, 0.0, 1.7151626644914043E9, 0.0, 2024-05-08 13:04:24.491
85.0, 2521.5896989810108, 0.0, 0.0, 0.0, 0.0, 0.0, 0.0, 0.0, 0.002, -0.048, 0.988, 192.0, 0.0, 0.0, 0.0, 0.0, 0.0, 0.0, 0.0, 0.0, 0.0, 1.7151626644914203E9, 0.0, 2024-05-08 13:04:24.491
86.0, 4675.716719116774, 0.0, 0.0, 0.0, 0.0, 0.0, 0.0, 0.0, 0.002, -0.048, 0.988, 192.0, 0.0, 0.0, 0.0, 0.0, 0.0, 0.0, 0.0, 0.0, 0.0, 1.7151626644914365E9, 0.0, 2024-05-08 13:04:24.491
87.0, 7841.528396788645, 0.0, 0.0, 0.0, 0.0, 0.0, 0.0, 0.0, 0.002, -0.048, 0.988, 192.0, 0.0, 0.0, 0.0, 0.0, 0.0, 0.0, 0.0, 0.0, 0.0, 1.7151626644914527E9, 0.0, 2024-05-08 13:04:24.491
88.0, 7951.364869042024, 0.0, 0.0, 0.0, 0.0, 0.0, 0.0, 0.0, 0.002, -0.05, 0.99, 192.0, 0.0, 16.0, 254.0, 112.0, 30.0, 240.0, 0.0, 0.0, 0.0, 1.7151626644914691E9, 0.0, 2024-05-08 13:04:24.491
89.0, 4566.908427108339, 0.0, 0.0, 0.0, 0.0, 0.0, 0.0, 0.0, 0.002, -0.05, 0.99, 192.0, 0.0, 0.0, 0.0, 0.0, 0.0, 0.0, 0.0, 0.0, 0.0, 1.7151626644915004E9, 0.0, 2024-05-08 13:04:24.491
90.0, 2609.4991099237336, 0.0, 0.0, 0.0, 0.0, 0.0, 0.0, 0.0, 0.002, -0.05, 0.99, 192.0, 0.0, 0.0, 0.0, 0.0, 0.0, 0.0, 0.0, 0.0, 0.0, 1.7151626644915164E9, 0.0, 2024-05-08 13:04:24.491
91.0, 4691.541754191131, 0.0, 0.0, 0.0, 0.0, 0.0, 0.0, 0.0, 0.002, -0.05, 0.99, 192.0, 0.0, 0.0, 0.0, 0.0, 0.0, 0.0, 0.0, 0.0, 0.0, 1.7151626644915323E9, 0.0, 2024-05-08 13:04:24.491
92.0, 7851.854902726996, 0.0, 0.0, 0.0, 0.0, 0.0, 0.0, 0.0, 0.002, -0.05, 0.99, 192.0, 0.0, 0.0, 0.0, 0.0, 0.0, 0.0, 0.0, 0.0, 0.0, 1.7151626644915483E9, 0.0, 2024-05-08 13:04:24.491
93.0, 8023.15867223247, 0.0, 0.0, 0.0, 0.0, 0.0, 0.0, 0.0, 0.002, -0.05, 0.99, 192.0, 0.0, 0.0, 0.0, 0.0, 0.0, 0.0, 0.0, 0.0, 0.0, 1.7151626644915655E9, 0.0, 2024-05-08 13:04:24.491
94.0, 4605.129910126914, 0.0, 0.0, 0.0, 0.0, 0.0, 0.0, 0.0, 0.002, -0.05, 0.99, 192.0, 0.0, 0.0, 0.0, 0.0, 0.0, 0.0, 0.0, 0.0, 0.0, 1.715162664491586E9, 0.0, 2024-05-08 13:04:24.491
95.0, 2600.0219702746836, 0.0, 0.0, 0.0, 0.0, 0.0, 0.0, 0.0, 0.002, -0.05, 0.99, 192.0, 0.0, 0.0, 0.0, 0.0, 0.0, 0.0, 0.0, 0.0, 0.0, 1.715162664491603E9, 0.0, 2024-05-08 13:04:24.491
96.0, 4646.167712946858, 0.0, 0.0, 0.0, 0.0, 0.0, 0.0, 0.0, 0.002, -0.05, 0.99, 192.0, 0.0, 0.0, 0.0, 0.0, 0.0, 0.0, 0.0, 0.0, 0.0, 1.715162664491629E9, 0.0, 2024-05-08 13:04:24.491
97.0, 7878.900513517919, 0.0, 0.0, 0.0, 0.0, 0.0, 0.0, 0.0, 0.002, -0.05, 0.99, 192.0, 0.0, 0.0, 0.0, 0.0, 0.0, 0.0, 0.0, 0.0, 0.0, 1.7151626644916549E9, 0.0, 2024-05-08 13:04:24.491
98.0, 8116.253687888824, 0.0, 0.0, 0.0, 0.0, 0.0, 0.0, 0.0, 0.004, -0.046, 0.996, 192.0, 0.0, 32.0, 254.0, 144.0, 31.0, 32.0, 0.0, 0.0, 0.0, 1.7151626644916728E9, 0.0, 2024-05-08 13:04:24.491
99.0, 4653.633195594931, 0.0, 0.0, 0.0, 0.0, 0.0, 0.0, 0.0, 0.004, -0.046, 0.996, 192.0, 0.0, 0.0, 0.0, 0.0, 0.0, 0.0, 0.0, 0.0, 0.0, 1.7151626644916897E9, 0.0, 2024-05-08 13:04:24.491
100.0, 2559.252388388203, 0.0, 0.0, 0.0, 0.0, 0.0, 0.0, 0.0, 0.004, -0.046, 0.996, 192.0, 0.0, 0.0, 0.0, 0.0, 0.0, 0.0, 0.0, 0.0, 0.0, 1.7151626644917066E9, 0.0, 2024-05-08 13:04:24.491
101.0, 4620.999648690182, 0.0, 0.0, 0.0, 0.0, 0.0, 0.0, 0.0, 0.004, -0.046, 0.996, 192.0, 0.0, 0.0, 0.0, 0.0, 0.0, 0.0, 0.0, 0.0, 0.0, 1.7151626644917228E9, 0.0, 2024-05-08 13:04:24.491
102.0, 7898.771214338686, 0.0, 0.0, 0.0, 0.0, 0.0, 0.0, 0.0, 0.004, -0.046, 0.996, 192.0, 0.0, 0.0, 0.0, 0.0, 0.0, 0.0, 0.0, 0.0, 0.0, 1.7151626644917388E9, 0.0, 2024-05-08 13:04:24.491
103.0, 8183.2642177658345, 0.0, 0.0, 0.0, 0.0, 0.0, 0.0, 0.0, 0.004, -0.046, 0.996, 192.0, 0.0, 0.0, 0.0, 0.0, 0.0, 0.0, 0.0, 0.0, 0.0, 1.7151626644917545E9, 0.0, 2024-05-08 13:04:24.491
104.0, 4628.934517971816, 0.0, 0.0, 0.0, 0.0, 0.0, 0.0, 0.0, 0.004, -0.046, 0.996, 192.0, 0.0, 0.0, 0.0, 0.0, 0.0, 0.0, 0.0, 0.0, 0.0, 1.7151626644917705E9, 0.0, 2024-05-08 13:04:24.491
105.0, 2398.677456221277, 0.0, 0.0, 0.0, 0.0, 0.0, 0.0, 0.0, 0.004, -0.046, 0.996, 192.0, 0.0, 0.0, 0.0, 0.0, 0.0, 0.0, 0.0, 0.0, 0.0, 1.7151626644917865E9, 0.0, 2024-05-08 13:04:24.491
106.0, 4426.852396351385, 0.0, 0.0, 0.0, 0.0, 0.0, 0.0, 0.0, 0.004, -0.046, 0.996, 192.0, 0.0, 0.0, 0.0, 0.0, 0.0, 0.0, 0.0, 0.0, 0.0, 1.7151626644918046E9, 0.0, 2024-05-08 13:04:24.491
107.0, 7870.630368069455, 0.0, 0.0, 0.0, 0.0, 0.0, 0.0, 0.0, 0.004, -0.046, 0.996, 192.0, 0.0, 0.0, 0.0, 0.0, 0.0, 0.0, 0.0, 0.0, 0.0, 1.715162664491836E9, 0.0, 2024-05-08 13:04:24.491
108.0, 8323.856690389715, 0.0, 0.0, 0.0, 0.0, 0.0, 0.0, 0.0, 0.008, -0.05, 0.992, 192.0, 0.0, 64.0, 254.0, 112.0, 31.0, 0.0, 0.0, 0.0, 0.0, 1.715162664491852E9, 0.0, 2024-05-08 13:04:24.491
109.0, 4777.640673832974, 0.0, 0.0, 0.0, 0.0, 0.0, 0.0, 0.0, 0.008, -0.05, 0.992, 192.0, 0.0, 0.0, 0.0, 0.0, 0.0, 0.0, 0.0, 0.0, 0.0, 1.7151626644918685E9, 0.0, 2024-05-08 13:04:24.491
110.0, 2541.7956759686085, 0.0, 0.0, 0.0, 0.0, 0.0, 0.0, 0.0, 0.008, -0.05, 0.992, 192.0, 0.0, 0.0, 0.0, 0.0, 0.0, 0.0, 0.0, 0.0, 0.0, 1.715162664491884E9, 0.0, 2024-05-08 13:04:24.491
111.0, 4645.094829213003, 0.0, 0.0, 0.0, 0.0, 0.0, 0.0, 0.0, 0.008, -0.05, 0.992, 192.0, 0.0, 0.0, 0.0, 0.0, 0.0, 0.0, 0.0, 0.0, 0.0, 1.7151626644919E9, 0.0, 2024-05-08 13:04:24.491
112.0, 8292.564248152286, 0.0, 0.0, 0.0, 0.0, 0.0, 0.0, 0.0, 0.008, -0.05, 0.992, 192.0, 0.0, 0.0, 0.0, 0.0, 0.0, 0.0, 0.0, 0.0, 0.0, 1.7151626644919157E9, 0.0, 2024-05-08 13:04:24.491
113.0, 8977.712270940814, 0.0, 0.0, 0.0, 0.0, 0.0, 0.0, 0.0, 0.008, -0.05, 0.992, 192.0, 0.0, 0.0, 0.0, 0.0, 0.0, 0.0, 0.0, 0.0, 0.0, 1.715162664491933E9, 0.0, 2024-05-08 13:04:24.491
114.0, 5557.560093112003, 0.0, 0.0, 0.0, 0.0, 0.0, 0.0, 0.0, 0.008, -0.05, 0.992, 192.0, 0.0, 0.0, 0.0, 0.0, 0.0, 0.0, 0.0, 0.0, 0.0, 1.715162664491949E9, 0.0, 2024-05-08 13:04:24.491
115.0, 3358.349604409886, 0.0, 0.0, 0.0, 0.0, 0.0, 0.0, 0.0, 0.008, -0.05, 0.992, 192.0, 0.0, 0.0, 0.0, 0.0, 0.0, 0.0, 0.0, 0.0, 0.0, 1.715162664491969E9, 0.0, 2024-05-08 13:04:24.491
116.0, 5485.810993410468, 0.0, 0.0, 0.0, 0.0, 0.0, 0.0, 0.0, 0.008, -0.05, 0.992, 192.0, 0.0, 0.0, 0.0, 0.0, 0.0, 0.0, 0.0, 0.0, 0.0, 1.7151626644919848E9, 0.0, 2024-05-08 13:04:24.491
117.0, 9196.20057299144, 0.0, 0.0, 0.0, 0.0, 0.0, 0.0, 0.0, 0.008, -0.05, 0.992, 192.0, 0.0, 0.0, 0.0, 0.0, 0.0, 0.0, 0.0, 0.0, 0.0, 1.7151626644920008E9, 0.0, 2024-05-08 13:04:24.492
118.0, 9796.79194650554, 0.0, 0.0, 0.0, 0.0, 0.0, 0.0, 0.0, 0.008, -0.044, 0.996, 192.0, 0.0, 64.0, 254.0, 160.0, 31.0, 32.0, 0.0, 0.0, 0.0, 1.7151626644920185E9, 0.0, 2024-05-08 13:04:24.492
119.0, 6084.815393068242, 0.0, 0.0, 0.0, 0.0, 0.0, 0.0, 0.0, 0.008, -0.044, 0.996, 192.0, 0.0, 0.0, 0.0, 0.0, 0.0, 0.0, 0.0, 0.0, 0.0, 1.7151626644920356E9, 0.0, 2024-05-08 13:04:24.492
120.0, 3512.151958006854, 0.0, 0.0, 0.0, 0.0, 0.0, 0.0, 0.0, 0.008, -0.044, 0.996, 192.0, 0.0, 0.0, 0.0, 0.0, 0.0, 0.0, 0.0, 0.0, 0.0, 1.7151626644920514E9, 0.0, 2024-05-08 13:04:24.492
121.0, 5387.172745129197, 0.0, 0.0, 0.0, 0.0, 0.0, 0.0, 0.0, 0.008, -0.044, 0.996, 192.0, 0.0, 0.0, 0.0, 0.0, 0.0, 0.0, 0.0, 0.0, 0.0, 1.7151626649661243E9, 0.0, 2024-05-08 13:04:24.966
122.0, 8959.853227121022, 0.0, 0.0, 0.0, 0.0, 0.0, 0.0, 0.0, 0.008, -0.044, 0.996, 192.0, 0.0, 0.0, 0.0, 0.0, 0.0, 0.0, 0.0, 0.0, 0.0, 1.715162664966286E9, 0.0, 2024-05-08 13:04:24.966
123.0, 9461.96281456504, 0.0, 0.0, 0.0, 0.0, 0.0, 0.0, 0.0, 0.008, -0.044, 0.996, 192.0, 0.0, 0.0, 0.0, 0.0, 0.0, 0.0, 0.0, 0.0, 0.0, 1.7151626649663372E9, 0.0, 2024-05-08 13:04:24.966
124.0, 5492.740034191613, 0.0, 0.0, 0.0, 0.0, 0.0, 0.0, 0.0, 0.008, -0.044, 0.996, 192.0, 0.0, 0.0, 0.0, 0.0, 0.0, 0.0, 0.0, 0.0, 0.0, 1.7151626649665155E9, 0.0, 2024-05-08 13:04:24.966
125.0, 2616.85283384953, 0.0, 0.0, 0.0, 0.0, 0.0, 0.0, 0.0, 0.008, -0.044, 0.996, 192.0, 0.0, 0.0, 0.0, 0.0, 0.0, 0.0, 0.0, 0.0, 0.0, 1.7151626649665616E9, 0.0, 2024-05-08 13:04:24.966
126.0, 4412.212003733159, 0.0, 0.0, 0.0, 0.0, 0.0, 0.0, 0.0, 0.008, -0.044, 0.996, 192.0, 0.0, 0.0, 0.0, 0.0, 0.0, 0.0, 0.0, 0.0, 0.0, 1.7151626649666088E9, 0.0, 2024-05-08 13:04:24.966
127.0, 8200.296247040778, 0.0, 0.0, 0.0, 0.0, 0.0, 0.0, 0.0, 0.008, -0.044, 0.996, 192.0, 0.0, 0.0, 0.0, 0.0, 0.0, 0.0, 0.0, 0.0, 0.0, 1.7151626649666545E9, 0.0, 2024-05-08 13:04:24.966
128.0, 9089.359234495072, 0.0, 0.0, 0.0, 0.0, 0.0, 0.0, 0.0, 0.002, -0.048, 0.994, 192.0, 0.0, 16.0, 254.0, 128.0, 31.0, 16.0, 0.0, 0.0, 0.0, 1.7151626649667137E9, 0.0, 2024-05-08 13:04:24.966
129.0, 5417.302896654952, 0.0, 0.0, 0.0, 0.0, 0.0, 0.0, 0.0, 0.002, -0.048, 0.994, 192.0, 0.0, 0.0, 0.0, 0.0, 0.0, 0.0, 0.0, 0.0, 0.0, 1.7151626649667659E9, 0.0, 2024-05-08 13:04:24.966
130.0, 2770.968111868872, 0.0, 0.0, 0.0, 0.0, 0.0, 0.0, 0.0, 0.002, -0.048, 0.994, 192.0, 0.0, 0.0, 0.0, 0.0, 0.0, 0.0, 0.0, 0.0, 0.0, 1.7151626649668157E9, 0.0, 2024-05-08 13:04:24.966
131.0, 4717.3133155481, 0.0, 0.0, 0.0, 0.0, 0.0, 0.0, 0.0, 0.002, -0.048, 0.994, 192.0, 0.0, 0.0, 0.0, 0.0, 0.0, 0.0, 0.0, 0.0, 0.0, 1.7151626649668632E9, 0.0, 2024-05-08 13:04:24.966
132.0, 8674.801430082493, 0.0, 0.0, 0.0, 0.0, 0.0, 0.0, 0.0, 0.002, -0.048, 0.994, 192.0, 0.0, 0.0, 0.0, 0.0, 0.0, 0.0, 0.0, 0.0, 0.0, 1.7151626649669108E9, 0.0, 2024-05-08 13:04:24.966
133.0, 9683.647416072776, 0.0, 0.0, 0.0, 0.0, 0.0, 0.0, 0.0, 0.002, -0.048, 0.994, 192.0, 0.0, 0.0, 0.0, 0.0, 0.0, 0.0, 0.0, 0.0, 0.0, 1.7151626649669564E9, 0.0, 2024-05-08 13:04:24.966
134.0, 6058.350927633158, 0.0, 0.0, 0.0, 0.0, 0.0, 0.0, 0.0, 0.002, -0.048, 0.994, 192.0, 0.0, 0.0, 0.0, 0.0, 0.0, 0.0, 0.0, 0.0, 0.0, 1.7151626649670043E9, 0.0, 2024-05-08 13:04:24.967
135.0, 3371.291264449509, 0.0, 0.0, 0.0, 0.0, 0.0, 0.0, 0.0, 0.002, -0.048, 0.994, 192.0, 0.0, 0.0, 0.0, 0.0, 0.0, 0.0, 0.0, 0.0, 0.0, 1.7151626649670484E9, 0.0, 2024-05-08 13:04:24.967
136.0, 5395.1970213886525, 0.0, 0.0, 0.0, 0.0, 0.0, 0.0, 0.0, 0.002, -0.048, 0.994, 192.0, 0.0, 0.0, 0.0, 0.0, 0.0, 0.0, 0.0, 0.0, 0.0, 1.7151626649670928E9, 0.0, 2024-05-08 13:04:24.967
137.0, 9742.901890623796, 0.0, 0.0, 0.0, 0.0, 0.0, 0.0, 0.0, 0.002, -0.048, 0.994, 192.0, 0.0, 0.0, 0.0, 0.0, 0.0, 0.0, 0.0, 0.0, 0.0, 1.715162664967137E9, 0.0, 2024-05-08 13:04:24.967
138.0, 11384.615169121644, 0.0, 0.0, 0.0, 0.0, 0.0, 0.0, 0.0, 0.002, -0.048, 0.994, 192.0, 0.0, 0.0, 254.0, 112.0, 31.0, 48.0, 0.0, 0.0, 0.0, 1.7151626649671805E9, 0.0, 2024-05-08 13:04:24.967
139.0, 8279.332015434744, 0.0, 0.0, 0.0, 0.0, 0.0, 0.0, 0.0, 0.002, -0.048, 0.994, 192.0, 0.0, 0.0, 0.0, 0.0, 0.0, 0.0, 0.0, 0.0, 0.0, 1.715162664967229E9, 0.0, 2024-05-08 13:04:24.967
140.0, 6283.723566976019, 0.0, 0.0, 0.0, 0.0, 0.0, 0.0, 0.0, 0.002, -0.048, 0.994, 192.0, 0.0, 0.0, 0.0, 0.0, 0.0, 0.0, 0.0, 0.0, 0.0, 1.715162664967273E9, 0.0, 2024-05-08 13:04:24.967
141.0, 8907.013703228677, 0.0, 0.0, 0.0, 0.0, 0.0, 0.0, 0.0, 0.002, -0.048, 0.994, 192.0, 0.0, 0.0, 0.0, 0.0, 0.0, 0.0, 0.0, 0.0, 0.0, 1.7151626649673164E9, 0.0, 2024-05-08 13:04:24.967
142.0, 13760.33738378732, 0.0, 0.0, 0.0, 0.0, 0.0, 0.0, 0.0, 0.002, -0.048, 0.994, 192.0, 0.0, 0.0, 0.0, 0.0, 0.0, 0.0, 0.0, 0.0, 0.0, 1.7151626649674597E9, 0.0, 2024-05-08 13:04:24.967
143.0, 15961.805398679424, 0.0, 0.0, 0.0, 0.0, 0.0, 0.0, 0.0, 0.002, -0.048, 0.994, 192.0, 0.0, 0.0, 0.0, 0.0, 0.0, 0.0, 0.0, 0.0, 0.0, 1.7151626649675176E9, 0.0, 2024-05-08 13:04:24.967
144.0, 13321.416177918456, 0.0, 0.0, 0.0, 0.0, 0.0, 0.0, 0.0, 0.002, -0.048, 0.994, 192.0, 0.0, 0.0, 0.0, 0.0, 0.0, 0.0, 0.0, 0.0, 0.0, 1.715162664967554E9, 0.0, 2024-05-08 13:04:24.967
145.0, 11031.457606727792, 0.0, 0.0, 0.0, 0.0, 0.0, 0.0, 0.0, 0.002, -0.048, 0.994, 192.0, 0.0, 0.0, 0.0, 0.0, 0.0, 0.0, 0.0, 0.0, 0.0, 1.71516266496759E9, 0.0, 2024-05-08 13:04:24.967
146.0, 12925.633838848335, 0.0, 0.0, 0.0, 0.0, 0.0, 0.0, 0.0, 0.002, -0.048, 0.994, 192.0, 0.0, 0.0, 0.0, 0.0, 0.0, 0.0, 0.0, 0.0, 0.0, 1.7151626649676235E9, 0.0, 2024-05-08 13:04:24.967
147.0, 16726.011541606375, 0.0, 0.0, 0.0, 0.0, 0.0, 0.0, 0.0, 0.002, -0.048, 0.994, 192.0, 0.0, 0.0, 0.0, 0.0, 0.0, 0.0, 0.0, 0.0, 0.0, 1.7151626649676566E9, 0.0, 2024-05-08 13:04:24.967
148.0, 17332.168499489846, 0.0, 0.0, 0.0, 0.0, 0.0, 0.0, 0.0, 0.002, -0.048, 0.994, 192.0, 0.0, 16.0, 254.0, 128.0, 31.0, 16.0, 0.0, 0.0, 0.0, 1.715162664967712E9, 0.0, 2024-05-08 13:04:24.967
149.0, 12690.404080200682, 0.0, 0.0, 0.0, 0.0, 0.0, 0.0, 0.0, 0.002, -0.048, 0.994, 192.0, 0.0, 0.0, 0.0, 0.0, 0.0, 0.0, 0.0, 0.0, 0.0, 1.715162664967768E9, 0.0, 2024-05-08 13:04:24.967
150.0, 8660.920996775747, 0.0, 0.0, 0.0, 0.0, 0.0, 0.0, 0.0, 0.002, -0.048, 0.994, 192.0, 0.0, 0.0, 0.0, 0.0, 0.0, 0.0, 0.0, 0.0, 0.0, 1.7151626649678044E9, 0.0, 2024-05-08 13:04:24.967
151.0, 9438.605241609244, 0.0, 0.0, 0.0, 0.0, 0.0, 0.0, 0.0, 0.002, -0.048, 0.994, 192.0, 0.0, 0.0, 0.0, 0.0, 0.0, 0.0, 0.0, 0.0, 0.0, 1.7151626649678385E9, 0.0, 2024-05-08 13:04:24.967
152.0, 12636.581079552303, 0.0, 0.0, 0.0, 0.0, 0.0, 0.0, 0.0, 0.002, -0.048, 0.994, 192.0, 0.0, 0.0, 0.0, 0.0, 0.0, 0.0, 0.0, 0.0, 0.0, 1.715162664967872E9, 0.0, 2024-05-08 13:04:24.967
153.0, 13037.705485547243, 0.0, 0.0, 0.0, 0.0, 0.0, 0.0, 0.0, 0.002, -0.048, 0.994, 192.0, 0.0, 0.0, 0.0, 0.0, 0.0, 0.0, 0.0, 0.0, 0.0, 1.7151626649679053E9, 0.0, 2024-05-08 13:04:24.967
154.0, 8396.388101147188, 0.0, 0.0, 0.0, 0.0, 0.0, 0.0, 0.0, 0.002, -0.048, 0.994, 192.0, 0.0, 0.0, 0.0, 0.0, 0.0, 0.0, 0.0, 0.0, 0.0, 1.715162664967939E9, 0.0, 2024-05-08 13:04:24.967
155.0, 4429.020515563549, 0.0, 0.0, 0.0, 0.0, 0.0, 0.0, 0.0, 0.002, -0.048, 0.994, 192.0, 0.0, 0.0, 0.0, 0.0, 0.0, 0.0, 0.0, 0.0, 0.0, 1.715162664967972E9, 0.0, 2024-05-08 13:04:24.967
156.0, 5166.002233743934, 0.0, 0.0, 0.0, 0.0, 0.0, 0.0, 0.0, 0.002, -0.048, 0.994, 192.0, 0.0, 0.0, 0.0, 0.0, 0.0, 0.0, 0.0, 0.0, 0.0, 1.715162664968005E9, 0.0, 2024-05-08 13:04:24.968
157.0, 8322.448530489031, 0.0, 0.0, 0.0, 0.0, 0.0, 0.0, 0.0, 0.002, -0.048, 0.994, 192.0, 0.0, 0.0, 0.0, 0.0, 0.0, 0.0, 0.0, 0.0, 0.0, 1.715162664968038E9, 0.0, 2024-05-08 13:04:24.968
158.0, 8780.771050545103, 0.0, 0.0, 0.0, 0.0, 0.0, 0.0, 0.0, 0.004, -0.05, 0.99, 192.0, 0.0, 32.0, 254.0, 112.0, 30.0, 240.0, 0.0, 0.0, 0.0, 1.7151626649680743E9, 0.0, 2024-05-08 13:04:24.968
159.0, 4076.019415380885, 0.0, 0.0, 0.0, 0.0, 0.0, 0.0, 0.0, 0.004, -0.05, 0.99, 192.0, 0.0, 0.0, 0.0, 0.0, 0.0, 0.0, 0.0, 0.0, 0.0, 1.7151626649681537E9, 0.0, 2024-05-08 13:04:24.968
160.0, -166.31933049193987, 0.0, 0.0, 0.0, 0.0, 0.0, 0.0, 0.0, 0.004, -0.05, 0.99, 192.0, 0.0, 0.0, 0.0, 0.0, 0.0, 0.0, 0.0, 0.0, 0.0, 1.715162664968187E9, 0.0, 2024-05-08 13:04:24.968
161.0, 145.17458023721937, 0.0, 0.0, 0.0, 0.0, 0.0, 0.0, 0.0, 0.004, -0.05, 0.99, 192.0, 0.0, 0.0, 0.0, 0.0, 0.0, 0.0, 0.0, 0.0, 0.0, 1.7151626649682202E9, 0.0, 2024-05-08 13:04:24.968
162.0, 2983.153221983102, 0.0, 0.0, 0.0, 0.0, 0.0, 0.0, 0.0, 0.004, -0.05, 0.99, 192.0, 0.0, 0.0, 0.0, 0.0, 0.0, 0.0, 0.0, 0.0, 0.0, 1.7151626649682531E9, 0.0, 2024-05-08 13:04:24.968
163.0, 3312.2156038541325, 0.0, 0.0, 0.0, 0.0, 0.0, 0.0, 0.0, 0.004, -0.05, 0.99, 192.0, 0.0, 0.0, 0.0, 0.0, 0.0, 0.0, 0.0, 0.0, 0.0, 1.7151626649682865E9, 0.0, 2024-05-08 13:04:24.968
164.0, -1233.8609974218605, 0.0, 0.0, 0.0, 0.0, 0.0, 0.0, 0.0, 0.004, -0.05, 0.99, 192.0, 0.0, 0.0, 0.0, 0.0, 0.0, 0.0, 0.0, 0.0, 0.0, 1.715162664968321E9, 0.0, 2024-05-08 13:04:24.968
165.0, -5153.462905104507, 0.0, 0.0, 0.0, 0.0, 0.0, 0.0, 0.0, 0.004, -0.05, 0.99, 192.0, 0.0, 0.0, 0.0, 0.0, 0.0, 0.0, 0.0, 0.0, 0.0, 1.7151626649683545E9, 0.0, 2024-05-08 13:04:24.968
166.0, -4516.371132894889, 0.0, 0.0, 0.0, 0.0, 0.0, 0.0, 0.0, 0.004, -0.05, 0.99, 192.0, 0.0, 0.0, 0.0, 0.0, 0.0, 0.0, 0.0, 0.0, 0.0, 1.7151626649683871E9, 0.0, 2024-05-08 13:04:24.968
167.0, -1386.4340050737865, 0.0, 0.0, 0.0, 0.0, 0.0, 0.0, 0.0, 0.004, -0.05, 0.99, 192.0, 0.0, 0.0, 0.0, 0.0, 0.0, 0.0, 0.0, 0.0, 0.0, 1.71516266496842E9, 0.0, 2024-05-08 13:04:24.968
168.0, -712.9088894020188, 0.0, 0.0, 0.0, 0.0, 0.0, 0.0, 0.0, 0.006, -0.042, 0.988, 192.0, 0.0, 48.0, 254.0, 176.0, 30.0, 224.0, 0.0, 0.0, 0.0, 1.7151626649684532E9, 0.0, 2024-05-08 13:04:24.968
169.0, -4852.340203802611, 0.0, 0.0, 0.0, 0.0, 0.0, 0.0, 0.0, 0.006, -0.042, 0.988, 192.0, 0.0, 0.0, 0.0, 0.0, 0.0, 0.0, 0.0, 0.0, 0.0, 1.7151626649684994E9, 0.0, 2024-05-08 13:04:24.968
170.0, -8470.886465416726, 0.0, 0.0, 0.0, 0.0, 0.0, 0.0, 0.0, 0.006, -0.042, 0.988, 192.0, 0.0, 0.0, 0.0, 0.0, 0.0, 0.0, 0.0, 0.0, 0.0, 1.7151626649685552E9, 0.0, 2024-05-08 13:04:24.968
171.0, -7760.145695226872, 0.0, 0.0, 0.0, 0.0, 0.0, 0.0, 0.0, 0.006, -0.042, 0.988, 192.0, 0.0, 0.0, 0.0, 0.0, 0.0, 0.0, 0.0, 0.0, 0.0, 1.7151626649686263E9, 0.0, 2024-05-08 13:04:24.968
172.0, -4648.961681003771, 0.0, 0.0, 0.0, 0.0, 0.0, 0.0, 0.0, 0.006, -0.042, 0.988, 192.0, 0.0, 0.0, 0.0, 0.0, 0.0, 0.0, 0.0, 0.0, 0.0, 1.715162664968699E9, 0.0, 2024-05-08 13:04:24.968
173.0, -3966.6970332499786, 0.0, 0.0, 0.0, 0.0, 0.0, 0.0, 0.0, 0.006, -0.042, 0.988, 192.0, 0.0, 0.0, 0.0, 0.0, 0.0, 0.0, 0.0, 0.0, 0.0, 1.7151626649687357E9, 0.0, 2024-05-08 13:04:24.968
174.0, -8128.301278150235, 0.0, 0.0, 0.0, 0.0, 0.0, 0.0, 0.0, 0.006, -0.042, 0.988, 192.0, 0.0, 0.0, 0.0, 0.0, 0.0, 0.0, 0.0, 0.0, 0.0, 1.7151626649687696E9, 0.0, 2024-05-08 13:04:24.968
175.0, -11944.347553771444, 0.0, 0.0, 0.0, 0.0, 0.0, 0.0, 0.0, 0.006, -0.042, 0.988, 192.0, 0.0, 0.0, 0.0, 0.0, 0.0, 0.0, 0.0, 0.0, 0.0, 1.715162664968804E9, 0.0, 2024-05-08 13:04:24.968
176.0, -11602.432918838611, 0.0, 0.0, 0.0, 0.0, 0.0, 0.0, 0.0, 0.006, -0.042, 0.988, 192.0, 0.0, 0.0, 0.0, 0.0, 0.0, 0.0, 0.0, 0.0, 0.0, 1.7151626649688468E9, 0.0, 2024-05-08 13:04:24.968
177.0, -8951.873654350478, 0.0, 0.0, 0.0, 0.0, 0.0, 0.0, 0.0, 0.006, -0.042, 0.988, 192.0, 0.0, 0.0, 0.0, 0.0, 0.0, 0.0, 0.0, 0.0, 0.0, 1.7151626649689405E9, 0.0, 2024-05-08 13:04:24.968
178.0, -8657.389421151807, 0.0, 0.0, 0.0, 0.0, 0.0, 0.0, 0.0, 0.006, -0.046, 0.99, 192.0, 0.0, 48.0, 254.0, 144.0, 30.0, 240.0, 0.0, 0.0, 0.0, 1.715162664968986E9, 0.0, 2024-05-08 13:04:24.968
179.0, -13058.358497423947, 0.0, 0.0, 0.0, 0.0, 0.0, 0.0, 0.0, 0.006, -0.046, 0.99, 192.0, 0.0, 0.0, 0.0, 0.0, 0.0, 0.0, 0.0, 0.0, 0.0, 1.7151626649690218E9, 0.0, 2024-05-08 13:04:24.969
180.0, -16999.08280361686, 0.0, 0.0, 0.0, 0.0, 0.0, 0.0, 0.0, 0.006, -0.046, 0.99, 192.0, 0.0, 0.0, 0.0, 0.0, 0.0, 0.0, 0.0, 0.0, 0.0, 1.7151626649690557E9, 0.0, 2024-05-08 13:04:24.969
181.0, -16706.029082063327, 0.0, 0.0, 0.0, 0.0, 0.0, 0.0, 0.0, 0.006, -0.046, 0.99, 192.0, 0.0, 0.0, 0.0, 0.0, 0.0, 0.0, 0.0, 0.0, 0.0, 1.7151626649690914E9, 0.0, 2024-05-08 13:04:24.969
182.0, -13977.037546281523, 0.0, 0.0, 0.0, 0.0, 0.0, 0.0, 0.0, 0.006, -0.046, 0.99, 192.0, 0.0, 0.0, 0.0, 0.0, 0.0, 0.0, 0.0, 0.0, 0.0, 1.7151626649691253E9, 0.0, 2024-05-08 13:04:24.969
183.0, -13575.3543466752, 0.0, 0.0, 0.0, 0.0, 0.0, 0.0, 0.0, 0.006, -0.046, 0.99, 192.0, 0.0, 0.0, 0.0, 0.0, 0.0, 0.0, 0.0, 0.0, 0.0, 1.7151626649691596E9, 0.0, 2024-05-08 13:04:24.969
184.0, -17863.447113448037, 0.0, 0.0, 0.0, 0.0, 0.0, 0.0, 0.0, 0.006, -0.046, 0.99, 192.0, 0.0, 0.0, 0.0, 0.0, 0.0, 0.0, 0.0, 0.0, 0.0, 1.7151626649691932E9, 0.0, 2024-05-08 13:04:24.969
185.0, -21700.772249790698, 0.0, 0.0, 0.0, 0.0, 0.0, 0.0, 0.0, 0.006, -0.046, 0.99, 192.0, 0.0, 0.0, 0.0, 0.0, 0.0, 0.0, 0.0, 0.0, 0.0, 1.7151626649692268E9, 0.0, 2024-05-08 13:04:24.969
186.0, -21318.535067860495, 0.0, 0.0, 0.0, 0.0, 0.0, 0.0, 0.0, 0.006, -0.046, 0.99, 192.0, 0.0, 0.0, 0.0, 0.0, 0.0, 0.0, 0.0, 0.0, 0.0, 1.7151626649692607E9, 0.0, 2024-05-08 13:04:24.969
187.0, -18368.82005558253, 0.0, 0.0, 0.0, 0.0, 0.0, 0.0, 0.0, 0.006, -0.046, 0.99, 192.0, 0.0, 0.0, 0.0, 0.0, 0.0, 0.0, 0.0, 0.0, 0.0, 1.7151626649692943E9, 0.0, 2024-05-08 13:04:24.969
188.0, -17554.076618442134, 0.0, 0.0, 0.0, 0.0, 0.0, 0.0, 0.0, 0.008, -0.044, 0.99, 192.0, 0.0, 64.0, 254.0, 160.0, 30.0, 240.0, 0.0, 0.0, 0.0, 1.715162664969328E9, 0.0, 2024-05-08 13:04:24.969
189.0, -21312.07541371291, 0.0, 0.0, 0.0, 0.0, 0.0, 0.0, 0.0, 0.008, -0.044, 0.99, 192.0, 0.0, 0.0, 0.0, 0.0, 0.0, 0.0, 0.0, 0.0, 0.0, 1.7151626649693632E9, 0.0, 2024-05-08 13:04:24.969
190.0, -24826.44019442084, 0.0, 0.0, 0.0, 0.0, 0.0, 0.0, 0.0, 0.008, -0.044, 0.99, 192.0, 0.0, 0.0, 0.0, 0.0, 0.0, 0.0, 0.0, 0.0, 0.0, 1.7151626649693987E9, 0.0, 2024-05-08 13:04:24.969
191.0, -24270.507606328443, 0.0, 0.0, 0.0, 0.0, 0.0, 0.0, 0.0, 0.008, -0.044, 0.99, 192.0, 0.0, 0.0, 0.0, 0.0, 0.0, 0.0, 0.0, 0.0, 0.0, 1.7151626649694324E9, 0.0, 2024-05-08 13:04:24.969
192.0, -21125.147774833178, 0.0, 0.0, 0.0, 0.0, 0.0, 0.0, 0.0, 0.008, -0.044, 0.99, 192.0, 0.0, 0.0, 0.0, 0.0, 0.0, 0.0, 0.0, 0.0, 0.0, 1.715162664969472E9, 0.0, 2024-05-08 13:04:24.969
193.0, -19979.598519754236, 0.0, 0.0, 0.0, 0.0, 0.0, 0.0, 0.0, 0.008, -0.044, 0.99, 192.0, 0.0, 0.0, 0.0, 0.0, 0.0, 0.0, 0.0, 0.0, 0.0, 1.7151626649695055E9, 0.0, 2024-05-08 13:04:24.969
194.0, -23354.600173783325, 0.0, 0.0, 0.0, 0.0, 0.0, 0.0, 0.0, 0.008, -0.044, 0.99, 192.0, 0.0, 0.0, 0.0, 0.0, 0.0, 0.0, 0.0, 0.0, 0.0, 1.7151626649695635E9, 0.0, 2024-05-08 13:04:24.969
195.0, -26617.37371890232, 0.0, 0.0, 0.0, 0.0, 0.0, 0.0, 0.0, 0.008, -0.044, 0.99, 192.0, 0.0, 0.0, 0.0, 0.0, 0.0, 0.0, 0.0, 0.0, 0.0, 1.715162664969597E9, 0.0, 2024-05-08 13:04:24.969
196.0, -26038.821165421148, 0.0, 0.0, 0.0, 0.0, 0.0, 0.0, 0.0, 0.008, -0.044, 0.99, 192.0, 0.0, 0.0, 0.0, 0.0, 0.0, 0.0, 0.0, 0.0, 0.0, 1.715162664969633E9, 0.0, 2024-05-08 13:04:24.969
197.0, -22959.06370390221, 0.0, 0.0, 0.0, 0.0, 0.0, 0.0, 0.0, 0.008, -0.044, 0.99, 192.0, 0.0, 0.0, 0.0, 0.0, 0.0, 0.0, 0.0, 0.0, 0.0, 1.7151626649696665E9, 0.0, 2024-05-08 13:04:24.969
198.0, -21792.213236357362, 0.0, 0.0, 0.0, 0.0, 0.0, 0.0, 0.0, 0.006, -0.046, 0.99, 192.0, 0.0, 48.0, 254.0, 144.0, 30.0, 240.0, 0.0, 0.0, 0.0, 1.7151626649697196E9, 0.0, 2024-05-08 13:04:24.969
199.0, -24948.12309123553, 0.0, 0.0, 0.0, 0.0, 0.0, 0.0, 0.0, 0.006, -0.046, 0.99, 192.0, 0.0, 0.0, 0.0, 0.0, 0.0, 0.0, 0.0, 0.0, 0.0, 1.7151626649697816E9, 0.0, 2024-05-08 13:04:24.969
200.0, -27914.221932199234, 0.0, 0.0, 0.0, 0.0, 0.0, 0.0, 0.0, 0.006, -0.046, 0.99, 192.0, 0.0, 0.0, 0.0, 0.0, 0.0, 0.0, 0.0, 0.0, 0.0, 1.7151626649698155E9, 0.0, 2024-05-08 13:04:24.969
201.0, -27167.696019136434, 0.0, 0.0, 0.0, 0.0, 0.0, 0.0, 0.0, 0.006, -0.046, 0.99, 192.0, 0.0, 0.0, 0.0, 0.0, 0.0, 0.0, 0.0, 0.0, 0.0, 1.715162664969849E9, 0.0, 2024-05-08 13:04:24.969
202.0, -23972.715314950387, 0.0, 0.0, 0.0, 0.0, 0.0, 0.0, 0.0, 0.006, -0.046, 0.99, 192.0, 0.0, 0.0, 0.0, 0.0, 0.0, 0.0, 0.0, 0.0, 0.0, 1.7151626649698825E9, 0.0, 2024-05-08 13:04:24.969
203.0, -22533.710006917718, 0.0, 0.0, 0.0, 0.0, 0.0, 0.0, 0.0, 0.006, -0.046, 0.99, 192.0, 0.0, 0.0, 0.0, 0.0, 0.0, 0.0, 0.0, 0.0, 0.0, 1.7151626649699185E9, 0.0, 2024-05-08 13:04:24.969
204.0, -25253.537327472848, 0.0, 0.0, 0.0, 0.0, 0.0, 0.0, 0.0, 0.006, -0.046, 0.99, 192.0, 0.0, 0.0, 0.0, 0.0, 0.0, 0.0, 0.0, 0.0, 0.0, 1.7151626649699526E9, 0.0, 2024-05-08 13:04:24.969
205.0, -27922.112097991958, 0.0, 0.0, 0.0, 0.0, 0.0, 0.0, 0.0, 0.006, -0.046, 0.99, 192.0, 0.0, 0.0, 0.0, 0.0, 0.0, 0.0, 0.0, 0.0, 0.0, 1.7151626649699855E9, 0.0, 2024-05-08 13:04:24.969
206.0, -27009.73624107078, 0.0, 0.0, 0.0, 0.0, 0.0, 0.0, 0.0, 0.006, -0.046, 0.99, 192.0, 0.0, 0.0, 0.0, 0.0, 0.0, 0.0, 0.0, 0.0, 0.0, 1.7151626649700189E9, 0.0, 2024-05-08 13:04:24.970
207.0, -23679.39337246339, 0.0, 0.0, 0.0, 0.0, 0.0, 0.0, 0.0, 0.006, -0.046, 0.99, 192.0, 0.0, 0.0, 0.0, 0.0, 0.0, 0.0, 0.0, 0.0, 0.0, 1.7151626649700518E9, 0.0, 2024-05-08 13:04:24.970
208.0, -22028.046492105306, 0.0, 0.0, 0.0, 0.0, 0.0, 0.0, 0.0, 0.004, -0.048, 0.988, 192.0, 0.0, 32.0, 254.0, 128.0, 30.0, 224.0, 0.0, 0.0, 0.0, 1.7151626649700868E9, 0.0, 2024-05-08 13:04:24.970
209.0, -24504.485667286597, 0.0, 0.0, 0.0, 0.0, 0.0, 0.0, 0.0, 0.004, -0.048, 0.988, 192.0, 0.0, 0.0, 0.0, 0.0, 0.0, 0.0, 0.0, 0.0, 0.0, 1.7151626649701245E9, 0.0, 2024-05-08 13:04:24.970
210.0, -27007.031679991687, 0.0, 0.0, 0.0, 0.0, 0.0, 0.0, 0.0, 0.004, -0.048, 0.988, 192.0, 0.0, 0.0, 0.0, 0.0, 0.0, 0.0, 0.0, 0.0, 0.0, 1.7151626649701579E9, 0.0, 2024-05-08 13:04:24.970
211.0, -26083.949337476413, 0.0, 0.0, 0.0, 0.0, 0.0, 0.0, 0.0, 0.004, -0.048, 0.988, 192.0, 0.0, 0.0, 0.0, 0.0, 0.0, 0.0, 0.0, 0.0, 0.0, 1.7151626649702184E9, 0.0, 2024-05-08 13:04:24.970
212.0, -22941.36112229361, 0.0, 0.0, 0.0, 0.0, 0.0, 0.0, 0.0, 0.004, -0.048, 0.988, 192.0, 0.0, 0.0, 0.0, 0.0, 0.0, 0.0, 0.0, 0.0, 0.0, 1.7151626649702518E9, 0.0, 2024-05-08 13:04:24.970
213.0, -21517.331483045993, 0.0, 0.0, 0.0, 0.0, 0.0, 0.0, 0.0, 0.004, -0.048, 0.988, 192.0, 0.0, 0.0, 0.0, 0.0, 0.0, 0.0, 0.0, 0.0, 0.0, 1.715162664970285E9, 0.0, 2024-05-08 13:04:24.970
214.0, -24196.83625660375, 0.0, 0.0, 0.0, 0.0, 0.0, 0.0, 0.0, 0.004, -0.048, 0.988, 192.0, 0.0, 0.0, 0.0, 0.0, 0.0, 0.0, 0.0, 0.0, 0.0, 1.7151626649703183E9, 0.0, 2024-05-08 13:04:24.970
215.0, -27070.287116800206, 0.0, 0.0, 0.0, 0.0, 0.0, 0.0, 0.0, 0.004, -0.048, 0.988, 192.0, 0.0, 0.0, 0.0, 0.0, 0.0, 0.0, 0.0, 0.0, 0.0, 1.715162664970352E9, 0.0, 2024-05-08 13:04:24.970
216.0, -26728.10426093391, 0.0, 0.0, 0.0, 0.0, 0.0, 0.0, 0.0, 0.004, -0.048, 0.988, 192.0, 0.0, 0.0, 0.0, 0.0, 0.0, 0.0, 0.0, 0.0, 0.0, 1.715162664970385E9, 0.0, 2024-05-08 13:04:24.970
217.0, -24169.20950045699, 0.0, 0.0, 0.0, 0.0, 0.0, 0.0, 0.0, 0.004, -0.05, 0.986, 192.0, 0.0, 32.0, 254.0, 112.0, 30.0, 208.0, 0.0, 0.0, 0.0, 1.715162664970418E9, 0.0, 2024-05-08 13:04:24.970
218.0, -23356.52242380648, 0.0, 0.0, 0.0, 0.0, 0.0, 0.0, 0.0, 0.004, -0.05, 0.986, 192.0, 0.0, 0.0, 0.0, 0.0, 0.0, 0.0, 0.0, 0.0, 0.0, 1.7151626649704528E9, 0.0, 2024-05-08 13:04:24.970
219.0, -26471.506234586985, 0.0, 0.0, 0.0, 0.0, 0.0, 0.0, 0.0, 0.004, -0.05, 0.986, 192.0, 0.0, 0.0, 0.0, 0.0, 0.0, 0.0, 0.0, 0.0, 0.0, 1.715162664970486E9, 0.0, 2024-05-08 13:04:24.970
220.0, -29516.774954411383, 0.0, 0.0, 0.0, 0.0, 0.0, 0.0, 0.0, 0.004, -0.05, 0.986, 192.0, 0.0, 0.0, 0.0, 0.0, 0.0, 0.0, 0.0, 0.0, 0.0, 1.7151626649705188E9, 0.0, 2024-05-08 13:04:24.970
221.0, -29140.01394987273, 0.0, 0.0, 0.0, 0.0, 0.0, 0.0, 0.0, 0.004, -0.05, 0.986, 192.0, 0.0, 0.0, 0.0, 0.0, 0.0, 0.0, 0.0, 0.0, 0.0, 1.7151626649705532E9, 0.0, 2024-05-08 13:04:24.970
222.0, -26486.1019237163, 0.0, 0.0, 0.0, 0.0, 0.0, 0.0, 0.0, 0.004, -0.05, 0.986, 192.0, 0.0, 0.0, 0.0, 0.0, 0.0, 0.0, 0.0, 0.0, 0.0, 1.715162664970588E9, 0.0, 2024-05-08 13:04:24.970
223.0, -25344.82185182832, 0.0, 0.0, 0.0, 0.0, 0.0, 0.0, 0.0, 0.004, -0.05, 0.986, 192.0, 0.0, 0.0, 0.0, 0.0, 0.0, 0.0, 0.0, 0.0, 0.0, 1.7151626649706223E9, 0.0, 2024-05-08 13:04:24.970
224.0, -28093.41586749743, 0.0, 0.0, 0.0, 0.0, 0.0, 0.0, 0.0, 0.004, -0.05, 0.986, 192.0, 0.0, 0.0, 0.0, 0.0, 0.0, 0.0, 0.0, 0.0, 0.0, 1.7151626649706554E9, 0.0, 2024-05-08 13:04:24.970
225.0, -30935.97661685665, 0.0, 0.0, 0.0, 0.0, 0.0, 0.0, 0.0, 0.004, -0.05, 0.986, 192.0, 0.0, 0.0, 0.0, 0.0, 0.0, 0.0, 0.0, 0.0, 0.0, 1.7151626649707353E9, 0.0, 2024-05-08 13:04:24.970
226.0, -30569.452711278525, 0.0, 0.0, 0.0, 0.0, 0.0, 0.0, 0.0, 0.004, -0.05, 0.986, 192.0, 0.0, 0.0, 0.0, 0.0, 0.0, 0.0, 0.0, 0.0, 0.0, 1.715162664970769E9, 0.0, 2024-05-08 13:04:24.970
227.0, -27985.121665611467, 0.0, 0.0, 0.0, 0.0, 0.0, 0.0, 0.0, 0.002, -0.048, 0.99, 192.0, 0.0, 16.0, 254.0, 128.0, 30.0, 240.0, 0.0, 0.0, 0.0, 1.7151626649708023E9, 0.0, 2024-05-08 13:04:24.970
228.0, -26889.84148381251, 0.0, 0.0, 0.0, 0.0, 0.0, 0.0, 0.0, 0.002, -0.048, 0.99, 192.0, 0.0, 0.0, 0.0, 0.0, 0.0, 0.0, 0.0, 0.0, 0.0, 1.7151626649708393E9, 0.0, 2024-05-08 13:04:24.970
229.0, -29622.275188240434, 0.0, 0.0, 0.0, 0.0, 0.0, 0.0, 0.0, 0.002, -0.048, 0.99, 192.0, 0.0, 0.0, 0.0, 0.0, 0.0, 0.0, 0.0, 0.0, 0.0, 1.7151626649708917E9, 0.0, 2024-05-08 13:04:24.970
230.0, -32433.8564197846, 0.0, 0.0, 0.0, 0.0, 0.0, 0.0, 0.0, 0.002, -0.048, 0.99, 192.0, 0.0, 0.0, 0.0, 0.0, 0.0, 0.0, 0.0, 0.0, 0.0, 1.715162664970925E9, 0.0, 2024-05-08 13:04:24.970
231.0, -31940.262846978054, 0.0, 0.0, 0.0, 0.0, 0.0, 0.0, 0.0, 0.002, -0.048, 0.99, 192.0, 0.0, 0.0, 0.0, 0.0, 0.0, 0.0, 0.0, 0.0, 0.0, 1.7151626649709587E9, 0.0, 2024-05-08 13:04:24.970
232.0, -29009.010375620175, 0.0, 0.0, 0.0, 0.0, 0.0, 0.0, 0.0, 0.002, -0.048, 0.99, 192.0, 0.0, 0.0, 0.0, 0.0, 0.0, 0.0, 0.0, 0.0, 0.0, 1.715162664970992E9, 0.0, 2024-05-08 13:04:24.970
233.0, -27390.967594500496, 0.0, 0.0, 0.0, 0.0, 0.0, 0.0, 0.0, 0.002, -0.048, 0.99, 192.0, 0.0, 0.0, 0.0, 0.0, 0.0, 0.0, 0.0, 0.0, 0.0, 1.7151626649710257E9, 0.0, 2024-05-08 13:04:24.971
234.0, -29730.658797104217, 0.0, 0.0, 0.0, 0.0, 0.0, 0.0, 0.0, 0.002, -0.048, 0.99, 192.0, 0.0, 0.0, 0.0, 0.0, 0.0, 0.0, 0.0, 0.0, 0.0, 1.715162664971059E9, 0.0, 2024-05-08 13:04:24.971
235.0, -32437.61151285309, 0.0, 0.0, 0.0, 0.0, 0.0, 0.0, 0.0, 0.002, -0.048, 0.99, 192.0, 0.0, 0.0, 0.0, 0.0, 0.0, 0.0, 0.0, 0.0, 0.0, 1.7151626649710984E9, 0.0, 2024-05-08 13:04:24.971
236.0, -31794.931804529646, 0.0, 0.0, 0.0, 0.0, 0.0, 0.0, 0.0, 0.002, -0.048, 0.99, 192.0, 0.0, 0.0, 0.0, 0.0, 0.0, 0.0, 0.0, 0.0, 0.0, 1.7151626649711435E9, 0.0, 2024-05-08 13:04:24.971
237.0, -28646.152156132717, 0.0, 0.0, 0.0, 0.0, 0.0, 0.0, 0.0, 0.002, -0.052000000000000005, 0.996, 192.0, 0.0, 16.0, 254.0, 96.0, 31.0, 32.0, 0.0, 0.0, 0.0, 1.7151626649711857E9, 0.0, 2024-05-08 13:04:24.971
238.0, -26691.916786660768, 0.0, 0.0, 0.0, 0.0, 0.0, 0.0, 0.0, 0.002, -0.052000000000000005, 0.996, 192.0, 0.0, 0.0, 0.0, 0.0, 0.0, 0.0, 0.0, 0.0, 0.0, 1.7151626649712293E9, 0.0, 2024-05-08 13:04:24.971
239.0, -28737.10140432136, 0.0, 0.0, 0.0, 0.0, 0.0, 0.0, 0.0, 0.002, -0.052000000000000005, 0.996, 192.0, 0.0, 0.0, 0.0, 0.0, 0.0, 0.0, 0.0, 0.0, 0.0, 1.7151626649712715E9, 0.0, 2024-05-08 13:04:24.971
240.0, -31150.665122349874, 0.0, 0.0, 0.0, 0.0, 0.0, 0.0, 0.0, 0.002, -0.052000000000000005, 0.996, 192.0, 0.0, 0.0, 0.0, 0.0, 0.0, 0.0, 0.0, 0.0, 0.0, 1.7151626649713137E9, 0.0, 2024-05-08 13:04:24.971
241.0, -30070.651182013895, 0.0, 0.0, 0.0, 0.0, 0.0, 0.0, 0.0, 0.002, -0.052000000000000005, 0.996, 192.0, 0.0, 0.0, 0.0, 0.0, 0.0, 0.0, 0.0, 0.0, 0.0, 1.7151626654464788E9, 0.0, 2024-05-08 13:04:25.446
242.0, -26260.1481390176, 0.0, 0.0, 0.0, 0.0, 0.0, 0.0, 0.0, 0.002, -0.052000000000000005, 0.996, 192.0, 0.0, 0.0, 0.0, 0.0, 0.0, 0.0, 0.0, 0.0, 0.0, 1.71516266544654E9, 0.0, 2024-05-08 13:04:25.446
243.0, -23900.139200704005, 0.0, 0.0, 0.0, 0.0, 0.0, 0.0, 0.0, 0.002, -0.052000000000000005, 0.996, 192.0, 0.0, 0.0, 0.0, 0.0, 0.0, 0.0, 0.0, 0.0, 0.0, 1.715162665446572E9, 0.0, 2024-05-08 13:04:25.446
244.0, -25865.997477292716, 0.0, 0.0, 0.0, 0.0, 0.0, 0.0, 0.0, 0.002, -0.052000000000000005, 0.996, 192.0, 0.0, 0.0, 0.0, 0.0, 0.0, 0.0, 0.0, 0.0, 0.0, 1.7151626654466035E9, 0.0, 2024-05-08 13:04:25.446
245.0, -28178.19603421641, 0.0, 0.0, 0.0, 0.0, 0.0, 0.0, 0.0, 0.002, -0.052000000000000005, 0.996, 192.0, 0.0, 0.0, 0.0, 0.0, 0.0, 0.0, 0.0, 0.0, 0.0, 1.7151626654466355E9, 0.0, 2024-05-08 13:04:25.446
246.0, -26943.619780971978, 0.0, 0.0, 0.0, 0.0, 0.0, 0.0, 0.0, 0.002, -0.052000000000000005, 0.996, 192.0, 0.0, 0.0, 0.0, 0.0, 0.0, 0.0, 0.0, 0.0, 0.0, 1.7151626654467144E9, 0.0, 2024-05-08 13:04:25.446
247.0, -22937.941305391945, 0.0, 0.0, 0.0, 0.0, 0.0, 0.0, 0.0, 0.002, -0.052000000000000005, 0.996, 192.0, 0.0, 0.0, 254.0, 128.0, 31.0, 48.0, 0.0, 0.0, 0.0, 1.715162665446736E9, 0.0, 2024-05-08 13:04:25.446
248.0, -20425.89580129335, 0.0, 0.0, 0.0, 0.0, 0.0, 0.0, 0.0, 0.002, -0.052000000000000005, 0.996, 192.0, 0.0, 0.0, 0.0, 0.0, 0.0, 0.0, 0.0, 0.0, 0.0, 1.715162665446762E9, 0.0, 2024-05-08 13:04:25.446
249.0, -22434.53531676952, 0.0, 0.0, 0.0, 0.0, 0.0, 0.0, 0.0, 0.002, -0.052000000000000005, 0.996, 192.0, 0.0, 0.0, 0.0, 0.0, 0.0, 0.0, 0.0, 0.0, 0.0, 1.715162665446784E9, 0.0, 2024-05-08 13:04:25.446
250.0, -25017.77112695827, 0.0, 0.0, 0.0, 0.0, 0.0, 0.0, 0.0, 0.002, -0.052000000000000005, 0.996, 192.0, 0.0, 0.0, 0.0, 0.0, 0.0, 0.0, 0.0, 0.0, 0.0, 1.7151626654468064E9, 0.0, 2024-05-08 13:04:25.446
251.0, -24196.433925203553, 0.0, 0.0, 0.0, 0.0, 0.0, 0.0, 0.0, 0.002, -0.052000000000000005, 0.996, 192.0, 0.0, 0.0, 0.0, 0.0, 0.0, 0.0, 0.0, 0.0, 0.0, 1.7151626654468293E9, 0.0, 2024-05-08 13:04:25.446
252.0, -20798.901712763516, 0.0, 0.0, 0.0, 0.0, 0.0, 0.0, 0.0, 0.002, -0.052000000000000005, 0.996, 192.0, 0.0, 0.0, 0.0, 0.0, 0.0, 0.0, 0.0, 0.0, 0.0, 1.7151626654468484E9, 0.0, 2024-05-08 13:04:25.446
253.0, -18920.751681417427, 0.0, 0.0, 0.0, 0.0, 0.0, 0.0, 0.0, 0.002, -0.052000000000000005, 0.996, 192.0, 0.0, 0.0, 0.0, 0.0, 0.0, 0.0, 0.0, 0.0, 0.0, 1.71516266544687E9, 0.0, 2024-05-08 13:04:25.446
254.0, -21474.57259590299, 0.0, 0.0, 0.0, 0.0, 0.0, 0.0, 0.0, 0.002, -0.052000000000000005, 0.996, 192.0, 0.0, 0.0, 0.0, 0.0, 0.0, 0.0, 0.0, 0.0, 0.0, 1.715162665446898E9, 0.0, 2024-05-08 13:04:25.446
255.0, -24634.326950827475, 0.0, 0.0, 0.0, 0.0, 0.0, 0.0, 0.0, 0.002, -0.052000000000000005, 0.996, 192.0, 0.0, 0.0, 0.0, 0.0, 0.0, 0.0, 0.0, 0.0, 0.0, 1.7151626654469285E9, 0.0, 2024-05-08 13:04:25.446
0.0, -24370.755180210494, 0.0, 0.0, 0.0, 0.0, 0.0, 0.0, 0.0, 0.002, -0.052000000000000005, 0.996, 192.0, 0.0, 0.0, 0.0, 0.0, 0.0, 0.0, 0.0, 0.0, 0.0, 1.7151626654469535E9, 0.0, 2024-05-08 13:04:25.446
1.0, -21290.505980313537, 0.0, 0.0, 0.0, 0.0, 0.0, 0.0, 0.0, -0.004, -0.042, 0.99, 192.0, 255.0, 224.0, 254.0, 176.0, 30.0, 240.0, 0.0, 0.0, 0.0, 1.715162665446976E9, 0.0, 2024-05-08 13:04:25.446
2.0, -19671.144446271, 0.0, 0.0, 0.0, 0.0, 0.0, 0.0, 0.0, -0.004, -0.042, 0.99, 192.0, 0.0, 0.0, 0.0, 0.0, 0.0, 0.0, 0.0, 0.0, 0.0, 1.7151626654470055E9, 0.0, 2024-05-08 13:04:25.447
3.0, -22614.869191034937, 0.0, 0.0, 0.0, 0.0, 0.0, 0.0, 0.0, -0.004, -0.042, 0.99, 192.0, 0.0, 0.0, 0.0, 0.0, 0.0, 0.0, 0.0, 0.0, 0.0, 1.715162665447038E9, 0.0, 2024-05-08 13:04:25.447
4.0, -26272.352191490198, 0.0, 0.0, 0.0, 0.0, 0.0, 0.0, 0.0, -0.004, -0.042, 0.99, 192.0, 0.0, 0.0, 0.0, 0.0, 0.0, 0.0, 0.0, 0.0, 0.0, 1.71516266544707E9, 0.0, 2024-05-08 13:04:25.447
5.0, -26503.357470435796, 0.0, 0.0, 0.0, 0.0, 0.0, 0.0, 0.0, -0.004, -0.042, 0.99, 192.0, 0.0, 0.0, 0.0, 0.0, 0.0, 0.0, 0.0, 0.0, 0.0, 1.7151626654471033E9, 0.0, 2024-05-08 13:04:25.447
6.0, -23812.833286861576, 0.0, 0.0, 0.0, 0.0, 0.0, 0.0, 0.0, -0.004, -0.042, 0.99, 192.0, 0.0, 0.0, 0.0, 0.0, 0.0, 0.0, 0.0, 0.0, 0.0, 1.715162665447127E9, 0.0, 2024-05-08 13:04:25.447
7.0, -22517.147364276334, 0.0, 0.0, 0.0, 0.0, 0.0, 0.0, 0.0, -0.004, -0.042, 0.99, 192.0, 0.0, 0.0, 0.0, 0.0, 0.0, 0.0, 0.0, 0.0, 0.0, 1.7151626654471488E9, 0.0, 2024-05-08 13:04:25.447
8.0, -25716.37489990889, 0.0, 0.0, 0.0, 0.0, 0.0, 0.0, 0.0, -0.004, -0.042, 0.99, 192.0, 0.0, 0.0, 0.0, 0.0, 0.0, 0.0, 0.0, 0.0, 0.0, 1.7151626654471989E9, 0.0, 2024-05-08 13:04:25.447
9.0, -29498.84885535823, 0.0, 0.0, 0.0, 0.0, 0.0, 0.0, 0.0, -0.004, -0.042, 0.99, 192.0, 0.0, 0.0, 0.0, 0.0, 0.0, 0.0, 0.0, 0.0, 0.0, 1.7151626654472227E9, 0.0, 2024-05-08 13:04:25.447
10.0, -29755.491585194064, 0.0, 0.0, 0.0, 0.0, 0.0, 0.0, 0.0, -0.004, -0.042, 0.99, 192.0, 0.0, 0.0, 0.0, 0.0, 0.0, 0.0, 0.0, 0.0, 0.0, 1.7151626654472513E9, 0.0, 2024-05-08 13:04:25.447
11.0, -27017.201723718852, 0.0, 0.0, 0.0, 0.0, 0.0, 0.0, 0.0, -0.002, -0.048, 0.988, 192.0, 255.0, 240.0, 254.0, 128.0, 30.0, 224.0, 0.0, 0.0, 0.0, 1.715162665447278E9, 0.0, 2024-05-08 13:04:25.447
12.0, -25607.410145689268, 0.0, 0.0, 0.0, 0.0, 0.0, 0.0, 0.0, -0.002, -0.048, 0.988, 192.0, 0.0, 0.0, 0.0, 0.0, 0.0, 0.0, 0.0, 0.0, 0.0, 1.7151626654473002E9, 0.0, 2024-05-08 13:04:25.447
13.0, -28146.881240234525, 0.0, 0.0, 0.0, 0.0, 0.0, 0.0, 0.0, -0.002, -0.048, 0.988, 192.0, 0.0, 0.0, 0.0, 0.0, 0.0, 0.0, 0.0, 0.0, 0.0, 1.7151626654473217E9, 0.0, 2024-05-08 13:04:25.447
14.0, -30658.34559897728, 0.0, 0.0, 0.0, 0.0, 0.0, 0.0, 0.0, -0.002, -0.048, 0.988, 192.0, 0.0, 0.0, 0.0, 0.0, 0.0, 0.0, 0.0, 0.0, 0.0, 1.7151626654473448E9, 0.0, 2024-05-08 13:04:25.447
15.0, -30840.735833732586, 0.0, 0.0, 0.0, 0.0, 0.0, 0.0, 0.0, -0.002, -0.048, 0.988, 192.0, 0.0, 0.0, 0.0, 0.0, 0.0, 0.0, 0.0, 0.0, 0.0, 1.715162665447368E9, 0.0, 2024-05-08 13:04:25.447
16.0, -28249.92278217349, 0.0, 0.0, 0.0, 0.0, 0.0, 0.0, 0.0, -0.002, -0.048, 0.988, 192.0, 0.0, 0.0, 0.0, 0.0, 0.0, 0.0, 0.0, 0.0, 0.0, 1.7151626654473896E9, 0.0, 2024-05-08 13:04:25.447
17.0, -27038.8829158405, 0.0, 0.0, 0.0, 0.0, 0.0, 0.0, 0.0, -0.002, -0.048, 0.988, 192.0, 0.0, 0.0, 0.0, 0.0, 0.0, 0.0, 0.0, 0.0, 0.0, 1.7151626654474196E9, 0.0, 2024-05-08 13:04:25.447
18.0, -30433.7329189459, 0.0, 0.0, 0.0, 0.0, 0.0, 0.0, 0.0, -0.002, -0.048, 0.988, 192.0, 0.0, 0.0, 0.0, 0.0, 0.0, 0.0, 0.0, 0.0, 0.0, 1.7151626654474473E9, 0.0, 2024-05-08 13:04:25.447
19.0, -34714.53901702631, 0.0, 0.0, 0.0, 0.0, 0.0, 0.0, 0.0, -0.002, -0.048, 0.988, 192.0, 0.0, 0.0, 0.0, 0.0, 0.0, 0.0, 0.0, 0.0, 0.0, 1.7151626654474683E9, 0.0, 2024-05-08 13:04:25.447
20.0, -35638.31426361969, 0.0, 0.0, 0.0, 0.0, 0.0, 0.0, 0.0, -0.002, -0.048, 0.988, 192.0, 0.0, 0.0, 0.0, 0.0, 0.0, 0.0, 0.0, 0.0, 0.0, 1.7151626654474893E9, 0.0, 2024-05-08 13:04:25.447
21.0, -33852.40988164066, 0.0, 0.0, 0.0, 0.0, 0.0, 0.0, 0.0, -0.002, -0.048, 0.988, 192.0, 0.0, 0.0, 254.0, 112.0, 31.0, 16.0, 0.0, 0.0, 0.0, 1.71516266544751E9, 0.0, 2024-05-08 13:04:25.447
22.0, -34150.448042207725, 0.0, 0.0, 0.0, 0.0, 0.0, 0.0, 0.0, -0.002, -0.048, 0.988, 192.0, 0.0, 0.0, 0.0, 0.0, 0.0, 0.0, 0.0, 0.0, 0.0, 1.7151626654475312E9, 0.0, 2024-05-08 13:04:25.447
23.0, -40307.10194195533, 0.0, 0.0, 0.0, 0.0, 0.0, 0.0, 0.0, -0.002, -0.048, 0.988, 192.0, 0.0, 0.0, 0.0, 0.0, 0.0, 0.0, 0.0, 0.0, 0.0, 1.7151626654475532E9, 0.0, 2024-05-08 13:04:25.447
24.0, -46818.992116331116, 0.0, 0.0, 0.0, 0.0, 0.0, 0.0, 0.0, -0.002, -0.048, 0.988, 192.0, 0.0, 0.0, 0.0, 0.0, 0.0, 0.0, 0.0, 0.0, 0.0, 1.715162665447575E9, 0.0, 2024-05-08 13:04:25.447
25.0, -48000.50532823865, 0.0, 0.0, 0.0, 0.0, 0.0, 0.0, 0.0, -0.002, -0.048, 0.988, 192.0, 0.0, 0.0, 0.0, 0.0, 0.0, 0.0, 0.0, 0.0, 0.0, 1.7151626654476273E9, 0.0, 2024-05-08 13:04:25.447
26.0, -45528.469446715055, 0.0, 0.0, 0.0, 0.0, 0.0, 0.0, 0.0, -0.002, -0.048, 0.988, 192.0, 0.0, 0.0, 0.0, 0.0, 0.0, 0.0, 0.0, 0.0, 0.0, 1.715162665447651E9, 0.0, 2024-05-08 13:04:25.447
27.0, -45124.528720918745, 0.0, 0.0, 0.0, 0.0, 0.0, 0.0, 0.0, -0.002, -0.048, 0.988, 192.0, 0.0, 0.0, 0.0, 0.0, 0.0, 0.0, 0.0, 0.0, 0.0, 1.7151626654476776E9, 0.0, 2024-05-08 13:04:25.447
28.0, -49678.853115898746, 0.0, 0.0, 0.0, 0.0, 0.0, 0.0, 0.0, -0.002, -0.048, 0.988, 192.0, 0.0, 0.0, 0.0, 0.0, 0.0, 0.0, 0.0, 0.0, 0.0, 1.7151626654476972E9, 0.0, 2024-05-08 13:04:25.447
29.0, -54687.72258612187, 0.0, 0.0, 0.0, 0.0, 0.0, 0.0, 0.0, -0.002, -0.048, 0.988, 192.0, 0.0, 0.0, 0.0, 0.0, 0.0, 0.0, 0.0, 0.0, 0.0, 1.715162665447726E9, 0.0, 2024-05-08 13:04:25.447
30.0, -55880.12109757914, 0.0, 0.0, 0.0, 0.0, 0.0, 0.0, 0.0, -0.002, -0.048, 0.988, 192.0, 0.0, 0.0, 0.0, 0.0, 0.0, 0.0, 0.0, 0.0, 0.0, 1.7151626654477496E9, 0.0, 2024-05-08 13:04:25.447
31.0, -54125.71032353763, 0.0, 0.0, 0.0, 0.0, 0.0, 0.0, 0.0, 0.002, -0.052000000000000005, 0.992, 192.0, 0.0, 16.0, 254.0, 96.0, 31.0, 0.0, 0.0, 0.0, 0.0, 1.7151626654477715E9, 0.0, 2024-05-08 13:04:25.447
32.0, -53449.57005376459, 0.0, 0.0, 0.0, 0.0, 0.0, 0.0, 0.0, 0.002, -0.052000000000000005, 0.992, 192.0, 0.0, 0.0, 0.0, 0.0, 0.0, 0.0, 0.0, 0.0, 0.0, 1.7151626654477947E9, 0.0, 2024-05-08 13:04:25.447
33.0, -56445.083790431476, 0.0, 0.0, 0.0, 0.0, 0.0, 0.0, 0.0, 0.002, -0.052000000000000005, 0.992, 192.0, 0.0, 0.0, 0.0, 0.0, 0.0, 0.0, 0.0, 0.0, 0.0, 1.715162665447817E9, 0.0, 2024-05-08 13:04:25.447
34.0, -59936.40392260598, 0.0, 0.0, 0.0, 0.0, 0.0, 0.0, 0.0, 0.002, -0.052000000000000005, 0.992, 192.0, 0.0, 0.0, 0.0, 0.0, 0.0, 0.0, 0.0, 0.0, 0.0, 1.7151626654478393E9, 0.0, 2024-05-08 13:04:25.447
35.0, -60135.91559361406, 0.0, 0.0, 0.0, 0.0, 0.0, 0.0, 0.0, 0.002, -0.052000000000000005, 0.992, 192.0, 0.0, 0.0, 0.0, 0.0, 0.0, 0.0, 0.0, 0.0, 0.0, 1.7151626654478612E9, 0.0, 2024-05-08 13:04:25.447
36.0, -57694.09927059404, 0.0, 0.0, 0.0, 0.0, 0.0, 0.0, 0.0, 0.002, -0.052000000000000005, 0.992, 192.0, 0.0, 0.0, 0.0, 0.0, 0.0, 0.0, 0.0, 0.0, 0.0, 1.7151626654478855E9, 0.0, 2024-05-08 13:04:25.447
37.0, -57638.77870306715, 0.0, 0.0, 0.0, 0.0, 0.0, 0.0, 0.0, 0.002, -0.052000000000000005, 0.992, 192.0, 0.0, 0.0, 0.0, 0.0, 0.0, 0.0, 0.0, 0.0, 0.0, 1.7151626654479082E9, 0.0, 2024-05-08 13:04:25.447
38.0, -62489.017842890964, 0.0, 0.0, 0.0, 0.0, 0.0, 0.0, 0.0, 0.002, -0.052000000000000005, 0.992, 192.0, 0.0, 0.0, 0.0, 0.0, 0.0, 0.0, 0.0, 0.0, 0.0, 1.7151626654479308E9, 0.0, 2024-05-08 13:04:25.447
39.0, -64858.14629294232, 0.0, 0.0, 0.0, 0.0, 0.0, 0.0, 0.0, 0.002, -0.052000000000000005, 0.992, 192.0, 0.0, 0.0, 0.0, 0.0, 0.0, 0.0, 0.0, 0.0, 0.0, 1.715162665447952E9, 0.0, 2024-05-08 13:04:25.447
40.0, -62662.13210369732, 0.0, 0.0, 0.0, 0.0, 0.0, 0.0, 0.0, 0.002, -0.052000000000000005, 0.992, 192.0, 0.0, 0.0, 0.0, 0.0, 0.0, 0.0, 0.0, 0.0, 0.0, 1.7151626654479785E9, 0.0, 2024-05-08 13:04:25.447
41.0, -57862.698479020415, 0.0, 0.0, 0.0, 0.0, 0.0, 0.0, 0.0, 0.002, -0.05, 0.992, 192.0, 0.0, 16.0, 254.0, 112.0, 31.0, 0.0, 0.0, 0.0, 0.0, 1.715162665448002E9, 0.0, 2024-05-08 13:04:25.448
42.0, -55344.148617285326, 0.0, 0.0, 0.0, 0.0, 0.0, 0.0, 0.0, 0.002, -0.05, 0.992, 192.0, 0.0, 0.0, 0.0, 0.0, 0.0, 0.0, 0.0, 0.0, 0.0, 1.7151626654481456E9, 0.0, 2024-05-08 13:04:25.448
43.0, -57532.4291029488, 0.0, 0.0, 0.0, 0.0, 0.0, 0.0, 0.0, 0.002, -0.05, 0.992, 192.0, 0.0, 0.0, 0.0, 0.0, 0.0, 0.0, 0.0, 0.0, 0.0, 1.7151626654481692E9, 0.0, 2024-05-08 13:04:25.448
44.0, -60215.376045152676, 0.0, 0.0, 0.0, 0.0, 0.0, 0.0, 0.0, 0.002, -0.05, 0.992, 192.0, 0.0, 0.0, 0.0, 0.0, 0.0, 0.0, 0.0, 0.0, 0.0, 1.715162665448189E9, 0.0, 2024-05-08 13:04:25.448
45.0, -59213.61556215472, 0.0, 0.0, 0.0, 0.0, 0.0, 0.0, 0.0, 0.002, -0.05, 0.992, 192.0, 0.0, 0.0, 0.0, 0.0, 0.0, 0.0, 0.0, 0.0, 0.0, 1.7151626654482093E9, 0.0, 2024-05-08 13:04:25.448
46.0, -55249.623089983834, 0.0, 0.0, 0.0, 0.0, 0.0, 0.0, 0.0, 0.002, -0.05, 0.992, 192.0, 0.0, 0.0, 0.0, 0.0, 0.0, 0.0, 0.0, 0.0, 0.0, 1.7151626654482296E9, 0.0, 2024-05-08 13:04:25.448
47.0, -52843.34604064775, 0.0, 0.0, 0.0, 0.0, 0.0, 0.0, 0.0, 0.002, -0.05, 0.992, 192.0, 0.0, 0.0, 0.0, 0.0, 0.0, 0.0, 0.0, 0.0, 0.0, 1.71516266544825E9, 0.0, 2024-05-08 13:04:25.448
48.0, -55339.410047460806, 0.0, 0.0, 0.0, 0.0, 0.0, 0.0, 0.0, 0.002, -0.05, 0.992, 192.0, 0.0, 0.0, 0.0, 0.0, 0.0, 0.0, 0.0, 0.0, 0.0, 1.7151626654482777E9, 0.0, 2024-05-08 13:04:25.448
49.0, -58796.80023155216, 0.0, 0.0, 0.0, 0.0, 0.0, 0.0, 0.0, 0.002, -0.05, 0.992, 192.0, 0.0, 0.0, 0.0, 0.0, 0.0, 0.0, 0.0, 0.0, 0.0, 1.7151626654483E9, 0.0, 2024-05-08 13:04:25.448
50.0, -58561.88339732688, 0.0, 0.0, 0.0, 0.0, 0.0, 0.0, 0.0, 0.002, -0.05, 0.992, 192.0, 0.0, 0.0, 0.0, 0.0, 0.0, 0.0, 0.0, 0.0, 0.0, 1.71516266544832E9, 0.0, 2024-05-08 13:04:25.448
51.0, -55097.586524198836, 0.0, 0.0, 0.0, 0.0, 0.0, 0.0, 0.0, 0.002, -0.05, 0.99, 192.0, 0.0, 16.0, 254.0, 112.0, 30.0, 240.0, 0.0, 0.0, 0.0, 1.7151626654483411E9, 0.0, 2024-05-08 13:04:25.448
52.0, -53148.916739096254, 0.0, 0.0, 0.0, 0.0, 0.0, 0.0, 0.0, 0.002, -0.05, 0.99, 192.0, 0.0, 0.0, 0.0, 0.0, 0.0, 0.0, 0.0, 0.0, 0.0, 1.7151626654483616E9, 0.0, 2024-05-08 13:04:25.448
53.0, -55773.547980016236, 0.0, 0.0, 0.0, 0.0, 0.0, 0.0, 0.0, 0.002, -0.05, 0.99, 192.0, 0.0, 0.0, 0.0, 0.0, 0.0, 0.0, 0.0, 0.0, 0.0, 1.7151626654483778E9, 0.0, 2024-05-08 13:04:25.448
54.0, -58917.23143067735, 0.0, 0.0, 0.0, 0.0, 0.0, 0.0, 0.0, 0.002, -0.05, 0.99, 192.0, 0.0, 0.0, 0.0, 0.0, 0.0, 0.0, 0.0, 0.0, 0.0, 1.715162665448394E9, 0.0, 2024-05-08 13:04:25.448
55.0, -57981.341538589186, 0.0, 0.0, 0.0, 0.0, 0.0, 0.0, 0.0, 0.002, -0.05, 0.99, 192.0, 0.0, 0.0, 0.0, 0.0, 0.0, 0.0, 0.0, 0.0, 0.0, 1.7151626654484107E9, 0.0, 2024-05-08 13:04:25.448
56.0, -53567.207284832875, 0.0, 0.0, 0.0, 0.0, 0.0, 0.0, 0.0, 0.002, -0.05, 0.99, 192.0, 0.0, 0.0, 0.0, 0.0, 0.0, 0.0, 0.0, 0.0, 0.0, 1.7151626654484267E9, 0.0, 2024-05-08 13:04:25.448
57.0, -50572.989949344395, 0.0, 0.0, 0.0, 0.0, 0.0, 0.0, 0.0, 0.002, -0.05, 0.99, 192.0, 0.0, 0.0, 0.0, 0.0, 0.0, 0.0, 0.0, 0.0, 0.0, 1.7151626654484427E9, 0.0, 2024-05-08 13:04:25.448
58.0, -52433.549157804155, 0.0, 0.0, 0.0, 0.0, 0.0, 0.0, 0.0, 0.002, -0.05, 0.99, 192.0, 0.0, 0.0, 0.0, 0.0, 0.0, 0.0, 0.0, 0.0, 0.0, 1.715162665448459E9, 0.0, 2024-05-08 13:04:25.448
59.0, -55479.19785728429, 0.0, 0.0, 0.0, 0.0, 0.0, 0.0, 0.0, 0.002, -0.05, 0.99, 192.0, 0.0, 0.0, 0.0, 0.0, 0.0, 0.0, 0.0, 0.0, 0.0, 1.715162665448475E9, 0.0, 2024-05-08 13:04:25.448
60.0, -54666.935463778434, 0.0, 0.0, 0.0, 0.0, 0.0, 0.0, 0.0, 0.002, -0.05, 0.99, 192.0, 0.0, 0.0, 0.0, 0.0, 0.0, 0.0, 0.0, 0.0, 0.0, 1.715162665448516E9, 0.0, 2024-05-08 13:04:25.448
61.0, -50373.72414752533, 0.0, 0.0, 0.0, 0.0, 0.0, 0.0, 0.0, 0.002, -0.048, 0.99, 192.0, 0.0, 16.0, 254.0, 128.0, 30.0, 240.0, 0.0, 0.0, 0.0, 1.715162665448532E9, 0.0, 2024-05-08 13:04:25.448
62.0, -47749.0705548609, 0.0, 0.0, 0.0, 0.0, 0.0, 0.0, 0.0, 0.002, -0.048, 0.99, 192.0, 0.0, 0.0, 0.0, 0.0, 0.0, 0.0, 0.0, 0.0, 0.0, 1.7151626654485505E9, 0.0, 2024-05-08 13:04:25.448
63.0, -50262.39010839345, 0.0, 0.0, 0.0, 0.0, 0.0, 0.0, 0.0, 0.002, -0.048, 0.99, 192.0, 0.0, 0.0, 0.0, 0.0, 0.0, 0.0, 0.0, 0.0, 0.0, 1.7151626654485667E9, 0.0, 2024-05-08 13:04:25.448
64.0, -53816.161014576086, 0.0, 0.0, 0.0, 0.0, 0.0, 0.0, 0.0, 0.002, -0.048, 0.99, 192.0, 0.0, 0.0, 0.0, 0.0, 0.0, 0.0, 0.0, 0.0, 0.0, 1.715162665448583E9, 0.0, 2024-05-08 13:04:25.448
65.0, -53437.12013210299, 0.0, 0.0, 0.0, 0.0, 0.0, 0.0, 0.0, 0.002, -0.048, 0.99, 192.0, 0.0, 0.0, 0.0, 0.0, 0.0, 0.0, 0.0, 0.0, 0.0, 1.7151626654485989E9, 0.0, 2024-05-08 13:04:25.448
66.0, -49358.26204517628, 0.0, 0.0, 0.0, 0.0, 0.0, 0.0, 0.0, 0.002, -0.048, 0.99, 192.0, 0.0, 0.0, 0.0, 0.0, 0.0, 0.0, 0.0, 0.0, 0.0, 1.7151626654486153E9, 0.0, 2024-05-08 13:04:25.448
67.0, -46882.87340198438, 0.0, 0.0, 0.0, 0.0, 0.0, 0.0, 0.0, 0.002, -0.048, 0.99, 192.0, 0.0, 0.0, 0.0, 0.0, 0.0, 0.0, 0.0, 0.0, 0.0, 1.7151626654486313E9, 0.0, 2024-05-08 13:04:25.448
68.0, -49848.94989120363, 0.0, 0.0, 0.0, 0.0, 0.0, 0.0, 0.0, 0.002, -0.048, 0.99, 192.0, 0.0, 0.0, 0.0, 0.0, 0.0, 0.0, 0.0, 0.0, 0.0, 1.7151626654486475E9, 0.0, 2024-05-08 13:04:25.448
69.0, -54116.14377691076, 0.0, 0.0, 0.0, 0.0, 0.0, 0.0, 0.0, 0.002, -0.048, 0.99, 192.0, 0.0, 0.0, 0.0, 0.0, 0.0, 0.0, 0.0, 0.0, 0.0, 1.7151626654486668E9, 0.0, 2024-05-08 13:04:25.448
70.0, -54265.31931940548, 0.0, 0.0, 0.0, 0.0, 0.0, 0.0, 0.0, 0.002, -0.048, 0.99, 192.0, 0.0, 0.0, 0.0, 0.0, 0.0, 0.0, 0.0, 0.0, 0.0, 1.715162665448687E9, 0.0, 2024-05-08 13:04:25.448
71.0, -50564.07160330673, 0.0, 0.0, 0.0, 0.0, 0.0, 0.0, 0.0, 0.002, -0.052000000000000005, 0.988, 192.0, 0.0, 16.0, 254.0, 96.0, 30.0, 224.0, 0.0, 0.0, 0.0, 1.715162665448719E9, 0.0, 2024-05-08 13:04:25.448
72.0, -48259.58439822011, 0.0, 0.0, 0.0, 0.0, 0.0, 0.0, 0.0, 0.002, -0.052000000000000005, 0.988, 192.0, 0.0, 0.0, 0.0, 0.0, 0.0, 0.0, 0.0, 0.0, 0.0, 1.715162665448742E9, 0.0, 2024-05-08 13:04:25.448
73.0, -50887.12136591928, 0.0, 0.0, 0.0, 0.0, 0.0, 0.0, 0.0, 0.002, -0.052000000000000005, 0.988, 192.0, 0.0, 0.0, 0.0, 0.0, 0.0, 0.0, 0.0, 0.0, 0.0, 1.7151626654487867E9, 0.0, 2024-05-08 13:04:25.448
74.0, -54582.87055288203, 0.0, 0.0, 0.0, 0.0, 0.0, 0.0, 0.0, 0.002, -0.052000000000000005, 0.988, 192.0, 0.0, 0.0, 0.0, 0.0, 0.0, 0.0, 0.0, 0.0, 0.0, 1.715162665448815E9, 0.0, 2024-05-08 13:04:25.448
75.0, -54138.562576599434, 0.0, 0.0, 0.0, 0.0, 0.0, 0.0, 0.0, 0.002, -0.052000000000000005, 0.988, 192.0, 0.0, 0.0, 0.0, 0.0, 0.0, 0.0, 0.0, 0.0, 0.0, 1.7151626654488373E9, 0.0, 2024-05-08 13:04:25.448
76.0, -49572.81644020277, 0.0, 0.0, 0.0, 0.0, 0.0, 0.0, 0.0, 0.002, -0.052000000000000005, 0.988, 192.0, 0.0, 0.0, 0.0, 0.0, 0.0, 0.0, 0.0, 0.0, 0.0, 1.7151626654488578E9, 0.0, 2024-05-08 13:04:25.448
77.0, -46266.74756607385, 0.0, 0.0, 0.0, 0.0, 0.0, 0.0, 0.0, 0.002, -0.052000000000000005, 0.988, 192.0, 0.0, 0.0, 0.0, 0.0, 0.0, 0.0, 0.0, 0.0, 0.0, 1.7151626654489083E9, 0.0, 2024-05-08 13:04:25.448
78.0, -48344.6104341281, 0.0, 0.0, 0.0, 0.0, 0.0, 0.0, 0.0, 0.002, -0.052000000000000005, 0.988, 192.0, 0.0, 0.0, 0.0, 0.0, 0.0, 0.0, 0.0, 0.0, 0.0, 1.71516266544893E9, 0.0, 2024-05-08 13:04:25.448
79.0, -51875.470802244046, 0.0, 0.0, 0.0, 0.0, 0.0, 0.0, 0.0, 0.002, -0.052000000000000005, 0.988, 192.0, 0.0, 0.0, 0.0, 0.0, 0.0, 0.0, 0.0, 0.0, 0.0, 1.7151626654489503E9, 0.0, 2024-05-08 13:04:25.448
80.0, -51362.677080950394, 0.0, 0.0, 0.0, 0.0, 0.0, 0.0, 0.0, 0.002, -0.052000000000000005, 0.988, 192.0, 0.0, 0.0, 0.0, 0.0, 0.0, 0.0, 0.0, 0.0, 0.0, 1.7151626654489725E9, 0.0, 2024-05-08 13:04:25.448
81.0, -46820.33322099844, 0.0, 0.0, 0.0, 0.0, 0.0, 0.0, 0.0, 0.004, -0.054, 0.99, 192.0, 0.0, 32.0, 254.0, 80.0, 30.0, 240.0, 0.0, 0.0, 0.0, 1.7151626654489963E9, 0.0, 2024-05-08 13:04:25.448
82.0, -43697.70511361422, 0.0, 0.0, 0.0, 0.0, 0.0, 0.0, 0.0, 0.004, -0.054, 0.99, 192.0, 0.0, 0.0, 0.0, 0.0, 0.0, 0.0, 0.0, 0.0, 0.0, 1.715162665449021E9, 0.0, 2024-05-08 13:04:25.449
83.0, -46056.95409261633, 0.0, 0.0, 0.0, 0.0, 0.0, 0.0, 0.0, 0.004, -0.054, 0.99, 192.0, 0.0, 0.0, 0.0, 0.0, 0.0, 0.0, 0.0, 0.0, 0.0, 1.7151626654490433E9, 0.0, 2024-05-08 13:04:25.449
84.0, -49998.99715173211, 0.0, 0.0, 0.0, 0.0, 0.0, 0.0, 0.0, 0.004, -0.054, 0.99, 192.0, 0.0, 0.0, 0.0, 0.0, 0.0, 0.0, 0.0, 0.0, 0.0, 1.7151626654490635E9, 0.0, 2024-05-08 13:04:25.449
85.0, -49900.87299357331, 0.0, 0.0, 0.0, 0.0, 0.0, 0.0, 0.0, 0.004, -0.054, 0.99, 192.0, 0.0, 0.0, 0.0, 0.0, 0.0, 0.0, 0.0, 0.0, 0.0, 1.715162665449084E9, 0.0, 2024-05-08 13:04:25.449
86.0, -45755.16083898078, 0.0, 0.0, 0.0, 0.0, 0.0, 0.0, 0.0, 0.004, -0.054, 0.99, 192.0, 0.0, 0.0, 0.0, 0.0, 0.0, 0.0, 0.0, 0.0, 0.0, 1.7151626654491048E9, 0.0, 2024-05-08 13:04:25.449
87.0, -43094.923269143495, 0.0, 0.0, 0.0, 0.0, 0.0, 0.0, 0.0, 0.004, -0.054, 0.99, 192.0, 0.0, 0.0, 0.0, 0.0, 0.0, 0.0, 0.0, 0.0, 0.0, 1.715162665449126E9, 0.0, 2024-05-08 13:04:25.449
88.0, -45876.44140439527, 0.0, 0.0, 0.0, 0.0, 0.0, 0.0, 0.0, 0.004, -0.054, 0.99, 192.0, 0.0, 0.0, 0.0, 0.0, 0.0, 0.0, 0.0, 0.0, 0.0, 1.7151626654491477E9, 0.0, 2024-05-08 13:04:25.449
89.0, -50311.25102177275, 0.0, 0.0, 0.0, 0.0, 0.0, 0.0, 0.0, 0.004, -0.054, 0.99, 192.0, 0.0, 0.0, 0.0, 0.0, 0.0, 0.0, 0.0, 0.0, 0.0, 1.7151626654491713E9, 0.0, 2024-05-08 13:04:25.449
90.0, -50913.00468599852, 0.0, 0.0, 0.0, 0.0, 0.0, 0.0, 0.0, 0.004, -0.054, 0.99, 192.0, 0.0, 0.0, 0.0, 0.0, 0.0, 0.0, 0.0, 0.0, 0.0, 1.7151626654491944E9, 0.0, 2024-05-08 13:04:25.449
91.0, -47452.12762977215, 0.0, 0.0, 0.0, 0.0, 0.0, 0.0, 0.0, 0.006, -0.052000000000000005, 0.99, 192.0, 0.0, 48.0, 254.0, 96.0, 30.0, 240.0, 0.0, 0.0, 0.0, 1.7151626654492176E9, 0.0, 2024-05-08 13:04:25.449
92.0, -45113.24108996881, 0.0, 0.0, 0.0, 0.0, 0.0, 0.0, 0.0, 0.006, -0.052000000000000005, 0.99, 192.0, 0.0, 0.0, 0.0, 0.0, 0.0, 0.0, 0.0, 0.0, 0.0, 1.7151626654492397E9, 0.0, 2024-05-08 13:04:25.449
93.0, -48083.31854144556, 0.0, 0.0, 0.0, 0.0, 0.0, 0.0, 0.0, 0.006, -0.052000000000000005, 0.99, 192.0, 0.0, 0.0, 0.0, 0.0, 0.0, 0.0, 0.0, 0.0, 0.0, 1.7151626654492602E9, 0.0, 2024-05-08 13:04:25.449
94.0, -52656.59721572366, 0.0, 0.0, 0.0, 0.0, 0.0, 0.0, 0.0, 0.006, -0.052000000000000005, 0.99, 192.0, 0.0, 0.0, 0.0, 0.0, 0.0, 0.0, 0.0, 0.0, 0.0, 1.7151626654492824E9, 0.0, 2024-05-08 13:04:25.449
95.0, -53346.52851182563, 0.0, 0.0, 0.0, 0.0, 0.0, 0.0, 0.0, 0.006, -0.052000000000000005, 0.99, 192.0, 0.0, 0.0, 0.0, 0.0, 0.0, 0.0, 0.0, 0.0, 0.0, 1.7151626654493344E9, 0.0, 2024-05-08 13:04:25.449
96.0, -49899.062502272434, 0.0, 0.0, 0.0, 0.0, 0.0, 0.0, 0.0, 0.006, -0.052000000000000005, 0.99, 192.0, 0.0, 0.0, 0.0, 0.0, 0.0, 0.0, 0.0, 0.0, 0.0, 1.7151626654493568E9, 0.0, 2024-05-08 13:04:25.449
97.0, -47487.82336566727, 0.0, 0.0, 0.0, 0.0, 0.0, 0.0, 0.0, 0.006, -0.052000000000000005, 0.99, 192.0, 0.0, 0.0, 0.0, 0.0, 0.0, 0.0, 0.0, 0.0, 0.0, 1.715162665449378E9, 0.0, 2024-05-08 13:04:25.449
98.0, -50256.55630309061, 0.0, 0.0, 0.0, 0.0, 0.0, 0.0, 0.0, 0.006, -0.052000000000000005, 0.99, 192.0, 0.0, 0.0, 0.0, 0.0, 0.0, 0.0, 0.0, 0.0, 0.0, 1.7151626654493985E9, 0.0, 2024-05-08 13:04:25.449
99.0, -54731.48730176536, 0.0, 0.0, 0.0, 0.0, 0.0, 0.0, 0.0, 0.006, -0.052000000000000005, 0.99, 192.0, 0.0, 0.0, 0.0, 0.0, 0.0, 0.0, 0.0, 0.0, 0.0, 1.7151626654494188E9, 0.0, 2024-05-08 13:04:25.449
100.0, -54825.45403545547, 0.0, 0.0, 0.0, 0.0, 0.0, 0.0, 0.0, 0.006, -0.052000000000000005, 0.99, 192.0, 0.0, 0.0, 0.0, 0.0, 0.0, 0.0, 0.0, 0.0, 0.0, 1.7151626654494412E9, 0.0, 2024-05-08 13:04:25.449
101.0, -50511.47794860339, 0.0, 0.0, 0.0, 0.0, 0.0, 0.0, 0.0, 0.004, -0.046, 0.988, 192.0, 0.0, 32.0, 254.0, 144.0, 30.0, 224.0, 0.0, 0.0, 0.0, 1.715162665449463E9, 0.0, 2024-05-08 13:04:25.449
102.0, -47424.92555677004, 0.0, 0.0, 0.0, 0.0, 0.0, 0.0, 0.0, 0.004, -0.046, 0.988, 192.0, 0.0, 0.0, 0.0, 0.0, 0.0, 0.0, 0.0, 0.0, 0.0, 1.715162665449484E9, 0.0, 2024-05-08 13:04:25.449
103.0, -49707.306886590355, 0.0, 0.0, 0.0, 0.0, 0.0, 0.0, 0.0, 0.004, -0.046, 0.988, 192.0, 0.0, 0.0, 0.0, 0.0, 0.0, 0.0, 0.0, 0.0, 0.0, 1.7151626654495044E9, 0.0, 2024-05-08 13:04:25.449
104.0, -53738.2875368938, 0.0, 0.0, 0.0, 0.0, 0.0, 0.0, 0.0, 0.004, -0.046, 0.988, 192.0, 0.0, 0.0, 0.0, 0.0, 0.0, 0.0, 0.0, 0.0, 0.0, 1.7151626654495316E9, 0.0, 2024-05-08 13:04:25.449
105.0, -54528.26524117771, 0.0, 0.0, 0.0, 0.0, 0.0, 0.0, 0.0, 0.004, -0.046, 0.988, 192.0, 0.0, 0.0, 0.0, 0.0, 0.0, 0.0, 0.0, 0.0, 0.0, 1.7151626659257545E9, 0.0, 2024-05-08 13:04:25.925
106.0, -52399.440395765356, 0.0, 0.0, 0.0, 0.0, 0.0, 0.0, 0.0, 0.004, -0.046, 0.988, 192.0, 0.0, 0.0, 0.0, 0.0, 0.0, 0.0, 0.0, 0.0, 0.0, 1.7151626659258394E9, 0.0, 2024-05-08 13:04:25.925
107.0, -51761.87923692218, 0.0, 0.0, 0.0, 0.0, 0.0, 0.0, 0.0, 0.004, -0.046, 0.988, 192.0, 0.0, 0.0, 0.0, 0.0, 0.0, 0.0, 0.0, 0.0, 0.0, 1.7151626659258883E9, 0.0, 2024-05-08 13:04:25.925
108.0, -58174.34885196076, 0.0, 0.0, 0.0, 0.0, 0.0, 0.0, 0.0, 0.004, -0.046, 0.988, 192.0, 0.0, 0.0, 0.0, 0.0, 0.0, 0.0, 0.0, 0.0, 0.0, 1.7151626659259365E9, 0.0, 2024-05-08 13:04:25.925
109.0, -66755.34001056434, 0.0, 0.0, 0.0, 0.0, 0.0, 0.0, 0.0, 0.004, -0.046, 0.988, 192.0, 0.0, 0.0, 0.0, 0.0, 0.0, 0.0, 0.0, 0.0, 0.0, 1.7151626659259765E9, 0.0, 2024-05-08 13:04:25.925
110.0, -68890.22217872407, 0.0, 0.0, 0.0, 0.0, 0.0, 0.0, 0.0, 0.004, -0.046, 0.988, 192.0, 0.0, 0.0, 0.0, 0.0, 0.0, 0.0, 0.0, 0.0, 0.0, 1.71516266592601E9, 0.0, 2024-05-08 13:04:25.926
111.0, -64613.61820860126, 0.0, 0.0, 0.0, 0.0, 0.0, 0.0, 0.0, 0.004, -0.048, 0.992, 192.0, 0.0, 32.0, 254.0, 128.0, 31.0, 0.0, 0.0, 0.0, 0.0, 1.7151626659260435E9, 0.0, 2024-05-08 13:04:25.926
112.0, -60634.13597752285, 0.0, 0.0, 0.0, 0.0, 0.0, 0.0, 0.0, 0.004, -0.048, 0.992, 192.0, 0.0, 0.0, 0.0, 0.0, 0.0, 0.0, 0.0, 0.0, 0.0, 1.7151626659261348E9, 0.0, 2024-05-08 13:04:25.926
113.0, -61576.17259933622, 0.0, 0.0, 0.0, 0.0, 0.0, 0.0, 0.0, 0.004, -0.048, 0.992, 192.0, 0.0, 0.0, 0.0, 0.0, 0.0, 0.0, 0.0, 0.0, 0.0, 1.7151626659261706E9, 0.0, 2024-05-08 13:04:25.926
114.0, -63968.36804966546, 0.0, 0.0, 0.0, 0.0, 0.0, 0.0, 0.0, 0.004, -0.048, 0.992, 192.0, 0.0, 0.0, 0.0, 0.0, 0.0, 0.0, 0.0, 0.0, 0.0, 1.715162665926204E9, 0.0, 2024-05-08 13:04:25.926
115.0, -62508.97795068955, 0.0, 0.0, 0.0, 0.0, 0.0, 0.0, 0.0, 0.004, -0.048, 0.992, 192.0, 0.0, 0.0, 0.0, 0.0, 0.0, 0.0, 0.0, 0.0, 0.0, 1.7151626659262376E9, 0.0, 2024-05-08 13:04:25.926
116.0, -57193.241380839514, 0.0, 0.0, 0.0, 0.0, 0.0, 0.0, 0.0, 0.004, -0.048, 0.992, 192.0, 0.0, 0.0, 0.0, 0.0, 0.0, 0.0, 0.0, 0.0, 0.0, 1.7151626659262712E9, 0.0, 2024-05-08 13:04:25.926
117.0, -53051.1725605932, 0.0, 0.0, 0.0, 0.0, 0.0, 0.0, 0.0, 0.004, -0.048, 0.992, 192.0, 0.0, 0.0, 0.0, 0.0, 0.0, 0.0, 0.0, 0.0, 0.0, 1.715162665926307E9, 0.0, 2024-05-08 13:04:25.926
118.0, -54062.25372102901, 0.0, 0.0, 0.0, 0.0, 0.0, 0.0, 0.0, 0.004, -0.048, 0.992, 192.0, 0.0, 0.0, 0.0, 0.0, 0.0, 0.0, 0.0, 0.0, 0.0, 1.7151626659263408E9, 0.0, 2024-05-08 13:04:25.926
119.0, -57067.11048687822, 0.0, 0.0, 0.0, 0.0, 0.0, 0.0, 0.0, 0.004, -0.048, 0.992, 192.0, 0.0, 0.0, 0.0, 0.0, 0.0, 0.0, 0.0, 0.0, 0.0, 1.715162665926375E9, 0.0, 2024-05-08 13:04:25.926
120.0, -56763.95377683089, 0.0, 0.0, 0.0, 0.0, 0.0, 0.0, 0.0, 0.004, -0.048, 0.992, 192.0, 0.0, 0.0, 0.0, 0.0, 0.0, 0.0, 0.0, 0.0, 0.0, 1.7151626659264083E9, 0.0, 2024-05-08 13:04:25.926
121.0, -52495.01645505625, 0.0, 0.0, 0.0, 0.0, 0.0, 0.0, 0.0, 0.002, -0.048, 0.988, 192.0, 0.0, 16.0, 254.0, 128.0, 30.0, 224.0, 0.0, 0.0, 0.0, 1.7151626659264417E9, 0.0, 2024-05-08 13:04:25.926
122.0, -49177.324673810566, 0.0, 0.0, 0.0, 0.0, 0.0, 0.0, 0.0, 0.002, -0.048, 0.988, 192.0, 0.0, 0.0, 0.0, 0.0, 0.0, 0.0, 0.0, 0.0, 0.0, 1.7151626659264767E9, 0.0, 2024-05-08 13:04:25.926
123.0, -50622.63317377963, 0.0, 0.0, 0.0, 0.0, 0.0, 0.0, 0.0, 0.002, -0.048, 0.988, 192.0, 0.0, 0.0, 0.0, 0.0, 0.0, 0.0, 0.0, 0.0, 0.0, 1.7151626659265103E9, 0.0, 2024-05-08 13:04:25.926
124.0, -53814.99872386441, 0.0, 0.0, 0.0, 0.0, 0.0, 0.0, 0.0, 0.002, -0.048, 0.988, 192.0, 0.0, 0.0, 0.0, 0.0, 0.0, 0.0, 0.0, 0.0, 0.0, 1.715162665926544E9, 0.0, 2024-05-08 13:04:25.926
125.0, -53216.62017305138, 0.0, 0.0, 0.0, 0.0, 0.0, 0.0, 0.0, 0.002, -0.048, 0.988, 192.0, 0.0, 0.0, 0.0, 0.0, 0.0, 0.0, 0.0, 0.0, 0.0, 1.715162665926577E9, 0.0, 2024-05-08 13:04:25.926
126.0, -48408.938754670475, 0.0, 0.0, 0.0, 0.0, 0.0, 0.0, 0.0, 0.002, -0.048, 0.988, 192.0, 0.0, 0.0, 0.0, 0.0, 0.0, 0.0, 0.0, 0.0, 0.0, 1.7151626659266124E9, 0.0, 2024-05-08 13:04:25.926
127.0, -44456.65859659417, 0.0, 0.0, 0.0, 0.0, 0.0, 0.0, 0.0, 0.002, -0.048, 0.988, 192.0, 0.0, 0.0, 0.0, 0.0, 0.0, 0.0, 0.0, 0.0, 0.0, 1.7151626659266455E9, 0.0, 2024-05-08 13:04:25.926
128.0, -45454.216951634524, 0.0, 0.0, 0.0, 0.0, 0.0, 0.0, 0.0, 0.002, -0.048, 0.988, 192.0, 0.0, 0.0, 0.0, 0.0, 0.0, 0.0, 0.0, 0.0, 0.0, 1.7151626659266927E9, 0.0, 2024-05-08 13:04:25.926
129.0, -48333.21104445589, 0.0, 0.0, 0.0, 0.0, 0.0, 0.0, 0.0, 0.002, -0.048, 0.988, 192.0, 0.0, 0.0, 0.0, 0.0, 0.0, 0.0, 0.0, 0.0, 0.0, 1.715162665926783E9, 0.0, 2024-05-08 13:04:25.926
130.0, -47971.53746742457, 0.0, 0.0, 0.0, 0.0, 0.0, 0.0, 0.0, 0.002, -0.048, 0.988, 192.0, 0.0, 0.0, 0.0, 0.0, 0.0, 0.0, 0.0, 0.0, 0.0, 1.715162665926851E9, 0.0, 2024-05-08 13:04:25.926
131.0, -43784.67575128982, 0.0, 0.0, 0.0, 0.0, 0.0, 0.0, 0.0, 0.004, -0.048, 0.996, 192.0, 0.0, 32.0, 254.0, 128.0, 31.0, 32.0, 0.0, 0.0, 0.0, 1.7151626659269145E9, 0.0, 2024-05-08 13:04:25.926
132.0, -40519.7117352142, 0.0, 0.0, 0.0, 0.0, 0.0, 0.0, 0.0, 0.004, -0.048, 0.996, 192.0, 0.0, 0.0, 0.0, 0.0, 0.0, 0.0, 0.0, 0.0, 0.0, 1.7151626659269729E9, 0.0, 2024-05-08 13:04:25.926
133.0, -42093.09573091218, 0.0, 0.0, 0.0, 0.0, 0.0, 0.0, 0.0, 0.004, -0.048, 0.996, 192.0, 0.0, 0.0, 0.0, 0.0, 0.0, 0.0, 0.0, 0.0, 0.0, 1.7151626659270096E9, 0.0, 2024-05-08 13:04:25.927
134.0, -45513.493777929994, 0.0, 0.0, 0.0, 0.0, 0.0, 0.0, 0.0, 0.004, -0.048, 0.996, 192.0, 0.0, 0.0, 0.0, 0.0, 0.0, 0.0, 0.0, 0.0, 0.0, 1.7151626659270432E9, 0.0, 2024-05-08 13:04:25.927
135.0, -45408.2170615455, 0.0, 0.0, 0.0, 0.0, 0.0, 0.0, 0.0, 0.004, -0.048, 0.996, 192.0, 0.0, 0.0, 0.0, 0.0, 0.0, 0.0, 0.0, 0.0, 0.0, 1.7151626659270768E9, 0.0, 2024-05-08 13:04:25.927
136.0, -41084.92029725556, 0.0, 0.0, 0.0, 0.0, 0.0, 0.0, 0.0, 0.004, -0.048, 0.996, 192.0, 0.0, 0.0, 0.0, 0.0, 0.0, 0.0, 0.0, 0.0, 0.0, 1.7151626659271102E9, 0.0, 2024-05-08 13:04:25.927
137.0, -37348.513287128604, 0.0, 0.0, 0.0, 0.0, 0.0, 0.0, 0.0, 0.004, -0.048, 0.996, 192.0, 0.0, 0.0, 0.0, 0.0, 0.0, 0.0, 0.0, 0.0, 0.0, 1.7151626659271436E9, 0.0, 2024-05-08 13:04:25.927
138.0, -38299.714124168655, 0.0, 0.0, 0.0, 0.0, 0.0, 0.0, 0.0, 0.004, -0.048, 0.996, 192.0, 0.0, 0.0, 0.0, 0.0, 0.0, 0.0, 0.0, 0.0, 0.0, 1.7151626659271772E9, 0.0, 2024-05-08 13:04:25.927
139.0, -41168.26995232939, 0.0, 0.0, 0.0, 0.0, 0.0, 0.0, 0.0, 0.004, -0.048, 0.996, 192.0, 0.0, 0.0, 0.0, 0.0, 0.0, 0.0, 0.0, 0.0, 0.0, 1.7151626659272125E9, 0.0, 2024-05-08 13:04:25.927
140.0, -40774.633380726984, 0.0, 0.0, 0.0, 0.0, 0.0, 0.0, 0.0, 0.004, -0.048, 0.996, 192.0, 0.0, 0.0, 0.0, 0.0, 0.0, 0.0, 0.0, 0.0, 0.0, 1.7151626659272459E9, 0.0, 2024-05-08 13:04:25.927
141.0, -36345.70227214125, 0.0, 0.0, 0.0, 0.0, 0.0, 0.0, 0.0, 0.004, -0.044, 0.994, 192.0, 0.0, 32.0, 254.0, 160.0, 31.0, 16.0, 0.0, 0.0, 0.0, 1.7151626659272792E9, 0.0, 2024-05-08 13:04:25.927
142.0, -32631.959930891986, 0.0, 0.0, 0.0, 0.0, 0.0, 0.0, 0.0, 0.004, -0.044, 0.994, 192.0, 0.0, 0.0, 0.0, 0.0, 0.0, 0.0, 0.0, 0.0, 0.0, 1.7151626659273143E9, 0.0, 2024-05-08 13:04:25.927
143.0, -33542.63705523456, 0.0, 0.0, 0.0, 0.0, 0.0, 0.0, 0.0, 0.004, -0.044, 0.994, 192.0, 0.0, 0.0, 0.0, 0.0, 0.0, 0.0, 0.0, 0.0, 0.0, 1.715162665927348E9, 0.0, 2024-05-08 13:04:25.927
144.0, -36069.16648974019, 0.0, 0.0, 0.0, 0.0, 0.0, 0.0, 0.0, 0.004, -0.044, 0.994, 192.0, 0.0, 0.0, 0.0, 0.0, 0.0, 0.0, 0.0, 0.0, 0.0, 1.7151626659273813E9, 0.0, 2024-05-08 13:04:25.927
145.0, -35013.87357877178, 0.0, 0.0, 0.0, 0.0, 0.0, 0.0, 0.0, 0.004, -0.044, 0.994, 192.0, 0.0, 0.0, 0.0, 0.0, 0.0, 0.0, 0.0, 0.0, 0.0, 1.7151626659274166E9, 0.0, 2024-05-08 13:04:25.927
146.0, -29786.89578615377, 0.0, 0.0, 0.0, 0.0, 0.0, 0.0, 0.0, 0.004, -0.044, 0.994, 192.0, 0.0, 0.0, 0.0, 0.0, 0.0, 0.0, 0.0, 0.0, 0.0, 1.71516266592745E9, 0.0, 2024-05-08 13:04:25.927
147.0, -25276.38081030617, 0.0, 0.0, 0.0, 0.0, 0.0, 0.0, 0.0, 0.004, -0.044, 0.994, 192.0, 0.0, 0.0, 0.0, 0.0, 0.0, 0.0, 0.0, 0.0, 0.0, 1.715162665927513E9, 0.0, 2024-05-08 13:04:25.927
148.0, -25545.540517036978, 0.0, 0.0, 0.0, 0.0, 0.0, 0.0, 0.0, 0.004, -0.044, 0.994, 192.0, 0.0, 0.0, 0.0, 0.0, 0.0, 0.0, 0.0, 0.0, 0.0, 1.7151626659275467E9, 0.0, 2024-05-08 13:04:25.927
149.0, -27797.322308697978, 0.0, 0.0, 0.0, 0.0, 0.0, 0.0, 0.0, 0.004, -0.044, 0.994, 192.0, 0.0, 0.0, 0.0, 0.0, 0.0, 0.0, 0.0, 0.0, 0.0, 1.71516266592758E9, 0.0, 2024-05-08 13:04:25.927
150.0, -26820.372262045417, 0.0, 0.0, 0.0, 0.0, 0.0, 0.0, 0.0, 0.004, -0.044, 0.994, 192.0, 0.0, 0.0, 0.0, 0.0, 0.0, 0.0, 0.0, 0.0, 0.0, 1.7151626659276135E9, 0.0, 2024-05-08 13:04:25.927
151.0, -21899.81453416521, 0.0, 0.0, 0.0, 0.0, 0.0, 0.0, 0.0, 0.004, -0.044, 0.994, 192.0, 0.0, 0.0, 254.0, 192.0, 31.0, 32.0, 0.0, 0.0, 0.0, 1.715162665927647E9, 0.0, 2024-05-08 13:04:25.927
152.0, -17755.197615050987, 0.0, 0.0, 0.0, 0.0, 0.0, 0.0, 0.0, 0.004, -0.044, 0.994, 192.0, 0.0, 0.0, 0.0, 0.0, 0.0, 0.0, 0.0, 0.0, 0.0, 1.7151626659276917E9, 0.0, 2024-05-08 13:04:25.927
153.0, -18527.80801389313, 0.0, 0.0, 0.0, 0.0, 0.0, 0.0, 0.0, 0.004, -0.044, 0.994, 192.0, 0.0, 0.0, 0.0, 0.0, 0.0, 0.0, 0.0, 0.0, 0.0, 1.7151626659277248E9, 0.0, 2024-05-08 13:04:25.927
154.0, -21609.97946381324, 0.0, 0.0, 0.0, 0.0, 0.0, 0.0, 0.0, 0.004, -0.044, 0.994, 192.0, 0.0, 0.0, 0.0, 0.0, 0.0, 0.0, 0.0, 0.0, 0.0, 1.715162665927758E9, 0.0, 2024-05-08 13:04:25.927
155.0, -21365.18315853872, 0.0, 0.0, 0.0, 0.0, 0.0, 0.0, 0.0, 0.004, -0.044, 0.994, 192.0, 0.0, 0.0, 0.0, 0.0, 0.0, 0.0, 0.0, 0.0, 0.0, 1.7151626659277916E9, 0.0, 2024-05-08 13:04:25.927
156.0, -16974.898216116217, 0.0, 0.0, 0.0, 0.0, 0.0, 0.0, 0.0, 0.004, -0.044, 0.994, 192.0, 0.0, 0.0, 0.0, 0.0, 0.0, 0.0, 0.0, 0.0, 0.0, 1.7151626659278252E9, 0.0, 2024-05-08 13:04:25.927
157.0, -13275.013956429239, 0.0, 0.0, 0.0, 0.0, 0.0, 0.0, 0.0, 0.004, -0.044, 0.994, 192.0, 0.0, 0.0, 0.0, 0.0, 0.0, 0.0, 0.0, 0.0, 0.0, 1.7151626659278584E9, 0.0, 2024-05-08 13:04:25.927
158.0, -14388.644920426002, 0.0, 0.0, 0.0, 0.0, 0.0, 0.0, 0.0, 0.004, -0.044, 0.994, 192.0, 0.0, 0.0, 0.0, 0.0, 0.0, 0.0, 0.0, 0.0, 0.0, 1.7151626659278936E9, 0.0, 2024-05-08 13:04:25.927
159.0, -17606.603217912107, 0.0, 0.0, 0.0, 0.0, 0.0, 0.0, 0.0, 0.004, -0.044, 0.994, 192.0, 0.0, 0.0, 0.0, 0.0, 0.0, 0.0, 0.0, 0.0, 0.0, 1.7151626659279118E9, 0.0, 2024-05-08 13:04:25.927
160.0, -17436.931125751868, 0.0, 0.0, 0.0, 0.0, 0.0, 0.0, 0.0, 0.004, -0.044, 0.994, 192.0, 0.0, 0.0, 0.0, 0.0, 0.0, 0.0, 0.0, 0.0, 0.0, 1.7151626659279277E9, 0.0, 2024-05-08 13:04:25.927
161.0, -12873.286053334004, 0.0, 0.0, 0.0, 0.0, 0.0, 0.0, 0.0, 0.004, -0.044, 0.994, 192.0, 0.0, 0.0, 254.0, 160.0, 31.0, 16.0, 0.0, 0.0, 0.0, 1.715162665927944E9, 0.0, 2024-05-08 13:04:25.927
162.0, -8988.932846657377, 0.0, 0.0, 0.0, 0.0, 0.0, 0.0, 0.0, 0.004, -0.044, 0.994, 192.0, 0.0, 0.0, 0.0, 0.0, 0.0, 0.0, 0.0, 0.0, 0.0, 1.7151626659279606E9, 0.0, 2024-05-08 13:04:25.927
163.0, -9841.338973204967, 0.0, 0.0, 0.0, 0.0, 0.0, 0.0, 0.0, 0.004, -0.044, 0.994, 192.0, 0.0, 0.0, 0.0, 0.0, 0.0, 0.0, 0.0, 0.0, 0.0, 1.7151626659279768E9, 0.0, 2024-05-08 13:04:25.927
164.0, -12933.725170341155, 0.0, 0.0, 0.0, 0.0, 0.0, 0.0, 0.0, 0.004, -0.044, 0.994, 192.0, 0.0, 0.0, 0.0, 0.0, 0.0, 0.0, 0.0, 0.0, 0.0, 1.7151626659280033E9, 0.0, 2024-05-08 13:04:25.928
165.0, -12988.688109956754, 0.0, 0.0, 0.0, 0.0, 0.0, 0.0, 0.0, 0.004, -0.044, 0.994, 192.0, 0.0, 0.0, 0.0, 0.0, 0.0, 0.0, 0.0, 0.0, 0.0, 1.7151626659280193E9, 0.0, 2024-05-08 13:04:25.928
166.0, -8754.597157787939, 0.0, 0.0, 0.0, 0.0, 0.0, 0.0, 0.0, 0.004, -0.044, 0.994, 192.0, 0.0, 0.0, 0.0, 0.0, 0.0, 0.0, 0.0, 0.0, 0.0, 1.7151626659280355E9, 0.0, 2024-05-08 13:04:25.928
167.0, -4969.619806959607, 0.0, 0.0, 0.0, 0.0, 0.0, 0.0, 0.0, 0.004, -0.044, 0.994, 192.0, 0.0, 0.0, 0.0, 0.0, 0.0, 0.0, 0.0, 0.0, 0.0, 1.7151626659280517E9, 0.0, 2024-05-08 13:04:25.928
168.0, -6241.299955999846, 0.0, 0.0, 0.0, 0.0, 0.0, 0.0, 0.0, 0.004, -0.044, 0.994, 192.0, 0.0, 0.0, 0.0, 0.0, 0.0, 0.0, 0.0, 0.0, 0.0, 1.7151626659280677E9, 0.0, 2024-05-08 13:04:25.928
169.0, -10312.223173644921, 0.0, 0.0, 0.0, 0.0, 0.0, 0.0, 0.0, 0.004, -0.044, 0.994, 192.0, 0.0, 0.0, 0.0, 0.0, 0.0, 0.0, 0.0, 0.0, 0.0, 1.715162665928084E9, 0.0, 2024-05-08 13:04:25.928
170.0, -11444.048457628305, 0.0, 0.0, 0.0, 0.0, 0.0, 0.0, 0.0, 0.004, -0.044, 0.994, 192.0, 0.0, 0.0, 0.0, 0.0, 0.0, 0.0, 0.0, 0.0, 0.0, 1.7151626659281E9, 0.0, 2024-05-08 13:04:25.928
171.0, -8401.819575049827, 0.0, 0.0, 0.0, 0.0, 0.0, 0.0, 0.0, 0.004, -0.044, 0.994, 192.0, 0.0, 0.0, 254.0, 160.0, 31.0, 0.0, 0.0, 0.0, 0.0, 1.7151626659281187E9, 0.0, 2024-05-08 13:04:25.928
172.0, -6247.692554914064, 0.0, 0.0, 0.0, 0.0, 0.0, 0.0, 0.0, 0.004, -0.044, 0.994, 192.0, 0.0, 0.0, 0.0, 0.0, 0.0, 0.0, 0.0, 0.0, 0.0, 1.7151626659281356E9, 0.0, 2024-05-08 13:04:25.928
173.0, -9285.987530468408, 0.0, 0.0, 0.0, 0.0, 0.0, 0.0, 0.0, 0.004, -0.044, 0.994, 192.0, 0.0, 0.0, 0.0, 0.0, 0.0, 0.0, 0.0, 0.0, 0.0, 1.715162665928152E9, 0.0, 2024-05-08 13:04:25.928
174.0, -14724.457529122536, 0.0, 0.0, 0.0, 0.0, 0.0, 0.0, 0.0, 0.004, -0.044, 0.994, 192.0, 0.0, 0.0, 0.0, 0.0, 0.0, 0.0, 0.0, 0.0, 0.0, 1.7151626659281683E9, 0.0, 2024-05-08 13:04:25.928
175.0, -17019.42289107119, 0.0, 0.0, 0.0, 0.0, 0.0, 0.0, 0.0, 0.004, -0.044, 0.994, 192.0, 0.0, 0.0, 0.0, 0.0, 0.0, 0.0, 0.0, 0.0, 0.0, 1.7151626659281845E9, 0.0, 2024-05-08 13:04:25.928
176.0, -15162.350554746457, 0.0, 0.0, 0.0, 0.0, 0.0, 0.0, 0.0, 0.004, -0.044, 0.994, 192.0, 0.0, 0.0, 0.0, 0.0, 0.0, 0.0, 0.0, 0.0, 0.0, 1.7151626659282005E9, 0.0, 2024-05-08 13:04:25.928
177.0, -13787.830029467348, 0.0, 0.0, 0.0, 0.0, 0.0, 0.0, 0.0, 0.004, -0.044, 0.994, 192.0, 0.0, 0.0, 0.0, 0.0, 0.0, 0.0, 0.0, 0.0, 0.0, 1.7151626659282184E9, 0.0, 2024-05-08 13:04:25.928
178.0, -17343.411426950865, 0.0, 0.0, 0.0, 0.0, 0.0, 0.0, 0.0, 0.004, -0.044, 0.994, 192.0, 0.0, 0.0, 0.0, 0.0, 0.0, 0.0, 0.0, 0.0, 0.0, 1.7151626659282346E9, 0.0, 2024-05-08 13:04:25.928
179.0, -23767.302783406114, 0.0, 0.0, 0.0, 0.0, 0.0, 0.0, 0.0, 0.004, -0.044, 0.994, 192.0, 0.0, 0.0, 0.0, 0.0, 0.0, 0.0, 0.0, 0.0, 0.0, 1.7151626659282508E9, 0.0, 2024-05-08 13:04:25.928
180.0, -27109.290910874715, 0.0, 0.0, 0.0, 0.0, 0.0, 0.0, 0.0, 0.004, -0.044, 0.994, 192.0, 0.0, 0.0, 0.0, 0.0, 0.0, 0.0, 0.0, 0.0, 0.0, 1.715162665928267E9, 0.0, 2024-05-08 13:04:25.928
181.0, -25858.21907022227, 0.0, 0.0, 0.0, 0.0, 0.0, 0.0, 0.0, 0.004, -0.044, 0.994, 192.0, 0.0, 0.0, 254.0, 128.0, 31.0, 48.0, 0.0, 0.0, 0.0, 1.7151626659282832E9, 0.0, 2024-05-08 13:04:25.928
182.0, -25202.038908247818, 0.0, 0.0, 0.0, 0.0, 0.0, 0.0, 0.0, 0.004, -0.044, 0.994, 192.0, 0.0, 0.0, 0.0, 0.0, 0.0, 0.0, 0.0, 0.0, 0.0, 1.7151626659283094E9, 0.0, 2024-05-08 13:04:25.928
183.0, -29727.88718079176, 0.0, 0.0, 0.0, 0.0, 0.0, 0.0, 0.0, 0.004, -0.044, 0.994, 192.0, 0.0, 0.0, 0.0, 0.0, 0.0, 0.0, 0.0, 0.0, 0.0, 1.7151626659283268E9, 0.0, 2024-05-08 13:04:25.928
184.0, -37151.01327312151, 0.0, 0.0, 0.0, 0.0, 0.0, 0.0, 0.0, 0.004, -0.044, 0.994, 192.0, 0.0, 0.0, 0.0, 0.0, 0.0, 0.0, 0.0, 0.0, 0.0, 1.7151626659283428E9, 0.0, 2024-05-08 13:04:25.928
185.0, -41455.266351135535, 0.0, 0.0, 0.0, 0.0, 0.0, 0.0, 0.0, 0.004, -0.044, 0.994, 192.0, 0.0, 0.0, 0.0, 0.0, 0.0, 0.0, 0.0, 0.0, 0.0, 1.7151626659283588E9, 0.0, 2024-05-08 13:04:25.928
186.0, -41608.778132054584, 0.0, 0.0, 0.0, 0.0, 0.0, 0.0, 0.0, 0.004, -0.044, 0.994, 192.0, 0.0, 0.0, 0.0, 0.0, 0.0, 0.0, 0.0, 0.0, 0.0, 1.7151626659283748E9, 0.0, 2024-05-08 13:04:25.928
187.0, -42186.43661575754, 0.0, 0.0, 0.0, 0.0, 0.0, 0.0, 0.0, 0.004, -0.044, 0.994, 192.0, 0.0, 0.0, 0.0, 0.0, 0.0, 0.0, 0.0, 0.0, 0.0, 1.7151626659283907E9, 0.0, 2024-05-08 13:04:25.928
188.0, -46766.86784826134, 0.0, 0.0, 0.0, 0.0, 0.0, 0.0, 0.0, 0.004, -0.044, 0.994, 192.0, 0.0, 0.0, 0.0, 0.0, 0.0, 0.0, 0.0, 0.0, 0.0, 1.7151626659284067E9, 0.0, 2024-05-08 13:04:25.928
189.0, -52893.07867206081, 0.0, 0.0, 0.0, 0.0, 0.0, 0.0, 0.0, 0.004, -0.044, 0.994, 192.0, 0.0, 0.0, 0.0, 0.0, 0.0, 0.0, 0.0, 0.0, 0.0, 1.7151626659284232E9, 0.0, 2024-05-08 13:04:25.928
190.0, -55049.194997453094, 0.0, 0.0, 0.0, 0.0, 0.0, 0.0, 0.0, 0.004, -0.044, 0.994, 192.0, 0.0, 0.0, 0.0, 0.0, 0.0, 0.0, 0.0, 0.0, 0.0, 1.715162665928441E9, 0.0, 2024-05-08 13:04:25.928
191.0, -51560.22179844639, 0.0, 0.0, 0.0, 0.0, 0.0, 0.0, 0.0, -0.002, -0.054, 0.998, 192.0, 255.0, 240.0, 254.0, 80.0, 31.0, 48.0, 0.0, 0.0, 0.0, 1.7151626659284575E9, 0.0, 2024-05-08 13:04:25.928
192.0, -47633.95907091607, 0.0, 0.0, 0.0, 0.0, 0.0, 0.0, 0.0, -0.002, -0.054, 0.998, 192.0, 0.0, 0.0, 0.0, 0.0, 0.0, 0.0, 0.0, 0.0, 0.0, 1.7151626659284744E9, 0.0, 2024-05-08 13:04:25.928
193.0, -48226.6826303819, 0.0, 0.0, 0.0, 0.0, 0.0, 0.0, 0.0, -0.002, -0.054, 0.998, 192.0, 0.0, 0.0, 0.0, 0.0, 0.0, 0.0, 0.0, 0.0, 0.0, 1.7151626659284909E9, 0.0, 2024-05-08 13:04:25.928
194.0, -51436.504892886274, 0.0, 0.0, 0.0, 0.0, 0.0, 0.0, 0.0, -0.002, -0.054, 0.998, 192.0, 0.0, 0.0, 0.0, 0.0, 0.0, 0.0, 0.0, 0.0, 0.0, 1.7151626659285069E9, 0.0, 2024-05-08 13:04:25.928
195.0, -51689.23606744243, 0.0, 0.0, 0.0, 0.0, 0.0, 0.0, 0.0, -0.002, -0.054, 0.998, 192.0, 0.0, 0.0, 0.0, 0.0, 0.0, 0.0, 0.0, 0.0, 0.0, 1.7151626659285233E9, 0.0, 2024-05-08 13:04:25.928
196.0, -47707.71982761858, 0.0, 0.0, 0.0, 0.0, 0.0, 0.0, 0.0, -0.002, -0.054, 0.998, 192.0, 0.0, 0.0, 0.0, 0.0, 0.0, 0.0, 0.0, 0.0, 0.0, 1.7151626659285395E9, 0.0, 2024-05-08 13:04:25.928
197.0, -44097.77898761976, 0.0, 0.0, 0.0, 0.0, 0.0, 0.0, 0.0, -0.002, -0.054, 0.998, 192.0, 0.0, 0.0, 0.0, 0.0, 0.0, 0.0, 0.0, 0.0, 0.0, 1.7151626659285555E9, 0.0, 2024-05-08 13:04:25.928
198.0, -45006.95854508383, 0.0, 0.0, 0.0, 0.0, 0.0, 0.0, 0.0, -0.002, -0.054, 0.998, 192.0, 0.0, 0.0, 0.0, 0.0, 0.0, 0.0, 0.0, 0.0, 0.0, 1.7151626659285717E9, 0.0, 2024-05-08 13:04:25.928
199.0, -48638.871149882216, 0.0, 0.0, 0.0, 0.0, 0.0, 0.0, 0.0, -0.002, -0.054, 0.998, 192.0, 0.0, 0.0, 0.0, 0.0, 0.0, 0.0, 0.0, 0.0, 0.0, 1.715162665928596E9, 0.0, 2024-05-08 13:04:25.928
200.0, -49130.542472665606, 0.0, 0.0, 0.0, 0.0, 0.0, 0.0, 0.0, -0.002, -0.054, 0.998, 192.0, 0.0, 0.0, 0.0, 0.0, 0.0, 0.0, 0.0, 0.0, 0.0, 1.715162665928612E9, 0.0, 2024-05-08 13:04:25.928
201.0, -44795.041655903064, 0.0, 0.0, 0.0, 0.0, 0.0, 0.0, 0.0, -0.004, -0.05, 0.992, 192.0, 255.0, 224.0, 254.0, 112.0, 31.0, 0.0, 0.0, 0.0, 0.0, 1.715162665928628E9, 0.0, 2024-05-08 13:04:25.928
202.0, -40610.30335549157, 0.0, 0.0, 0.0, 0.0, 0.0, 0.0, 0.0, -0.004, -0.05, 0.992, 192.0, 0.0, 0.0, 0.0, 0.0, 0.0, 0.0, 0.0, 0.0, 0.0, 1.715162665928645E9, 0.0, 2024-05-08 13:04:25.928
203.0, -41076.96307622946, 0.0, 0.0, 0.0, 0.0, 0.0, 0.0, 0.0, -0.004, -0.05, 0.992, 192.0, 0.0, 0.0, 0.0, 0.0, 0.0, 0.0, 0.0, 0.0, 0.0, 1.7151626659286623E9, 0.0, 2024-05-08 13:04:25.928
204.0, -44187.8788695191, 0.0, 0.0, 0.0, 0.0, 0.0, 0.0, 0.0, -0.004, -0.05, 0.992, 192.0, 0.0, 0.0, 0.0, 0.0, 0.0, 0.0, 0.0, 0.0, 0.0, 1.7151626659286852E9, 0.0, 2024-05-08 13:04:25.928
205.0, -44216.131474510614, 0.0, 0.0, 0.0, 0.0, 0.0, 0.0, 0.0, -0.004, -0.05, 0.992, 192.0, 0.0, 0.0, 0.0, 0.0, 0.0, 0.0, 0.0, 0.0, 0.0, 1.7151626659287045E9, 0.0, 2024-05-08 13:04:25.928
206.0, -39588.895689117395, 0.0, 0.0, 0.0, 0.0, 0.0, 0.0, 0.0, -0.004, -0.05, 0.992, 192.0, 0.0, 0.0, 0.0, 0.0, 0.0, 0.0, 0.0, 0.0, 0.0, 1.7151626659287243E9, 0.0, 2024-05-08 13:04:25.928
207.0, -34808.4163437386, 0.0, 0.0, 0.0, 0.0, 0.0, 0.0, 0.0, -0.004, -0.05, 0.992, 192.0, 0.0, 0.0, 0.0, 0.0, 0.0, 0.0, 0.0, 0.0, 0.0, 1.7151626659287431E9, 0.0, 2024-05-08 13:04:25.928
208.0, -34500.901043522485, 0.0, 0.0, 0.0, 0.0, 0.0, 0.0, 0.0, -0.004, -0.05, 0.992, 192.0, 0.0, 0.0, 0.0, 0.0, 0.0, 0.0, 0.0, 0.0, 0.0, 1.715162665928769E9, 0.0, 2024-05-08 13:04:25.928
209.0, -37078.1018827083, 0.0, 0.0, 0.0, 0.0, 0.0, 0.0, 0.0, -0.004, -0.05, 0.992, 192.0, 0.0, 0.0, 0.0, 0.0, 0.0, 0.0, 0.0, 0.0, 0.0, 1.7151626659287984E9, 0.0, 2024-05-08 13:04:25.928
210.0, -36493.91668962439, 0.0, 0.0, 0.0, 0.0, 0.0, 0.0, 0.0, -0.004, -0.05, 0.992, 192.0, 0.0, 0.0, 0.0, 0.0, 0.0, 0.0, 0.0, 0.0, 0.0, 1.715162665928815E9, 0.0, 2024-05-08 13:04:25.928
211.0, -30886.91453777725, 0.0, 0.0, 0.0, 0.0, 0.0, 0.0, 0.0, -0.002, -0.052000000000000005, 0.988, 192.0, 255.0, 240.0, 254.0, 96.0, 30.0, 224.0, 0.0, 0.0, 0.0, 1.7151626659288309E9, 0.0, 2024-05-08 13:04:25.928
212.0, -24988.98208009983, 0.0, 0.0, 0.0, 0.0, 0.0, 0.0, 0.0, -0.002, -0.052000000000000005, 0.988, 192.0, 0.0, 0.0, 0.0, 0.0, 0.0, 0.0, 0.0, 0.0, 0.0, 1.7151626659288485E9, 0.0, 2024-05-08 13:04:25.928
213.0, -23416.49215418007, 0.0, 0.0, 0.0, 0.0, 0.0, 0.0, 0.0, -0.002, -0.052000000000000005, 0.988, 192.0, 0.0, 0.0, 0.0, 0.0, 0.0, 0.0, 0.0, 0.0, 0.0, 1.7151626659288645E9, 0.0, 2024-05-08 13:04:25.928
214.0, -24741.347103279484, 0.0, 0.0, 0.0, 0.0, 0.0, 0.0, 0.0, -0.002, -0.052000000000000005, 0.988, 192.0, 0.0, 0.0, 0.0, 0.0, 0.0, 0.0, 0.0, 0.0, 0.0, 1.7151626659288833E9, 0.0, 2024-05-08 13:04:25.928
215.0, -23278.47013216855, 0.0, 0.0, 0.0, 0.0, 0.0, 0.0, 0.0, -0.002, -0.052000000000000005, 0.988, 192.0, 0.0, 0.0, 0.0, 0.0, 0.0, 0.0, 0.0, 0.0, 0.0, 1.7151626659289055E9, 0.0, 2024-05-08 13:04:25.928
216.0, -16776.07944918626, 0.0, 0.0, 0.0, 0.0, 0.0, 0.0, 0.0, -0.002, -0.052000000000000005, 0.988, 192.0, 0.0, 0.0, 0.0, 0.0, 0.0, 0.0, 0.0, 0.0, 0.0, 1.7151626659289465E9, 0.0, 2024-05-08 13:04:25.928
217.0, -9832.80060682304, 0.0, 0.0, 0.0, 0.0, 0.0, 0.0, 0.0, -0.002, -0.052000000000000005, 0.988, 192.0, 0.0, 0.0, 0.0, 0.0, 0.0, 0.0, 0.0, 0.0, 0.0, 1.7151626659289672E9, 0.0, 2024-05-08 13:04:25.928
218.0, -7275.470468457994, 0.0, 0.0, 0.0, 0.0, 0.0, 0.0, 0.0, -0.002, -0.052000000000000005, 0.988, 192.0, 0.0, 0.0, 0.0, 0.0, 0.0, 0.0, 0.0, 0.0, 0.0, 1.7151626659289887E9, 0.0, 2024-05-08 13:04:25.928
219.0, -7555.44841950517, 0.0, 0.0, 0.0, 0.0, 0.0, 0.0, 0.0, -0.002, -0.052000000000000005, 0.988, 192.0, 0.0, 0.0, 0.0, 0.0, 0.0, 0.0, 0.0, 0.0, 0.0, 1.7151626659290051E9, 0.0, 2024-05-08 13:04:25.929
220.0, -4835.486988483309, 0.0, 0.0, 0.0, 0.0, 0.0, 0.0, 0.0, -0.002, -0.052000000000000005, 0.988, 192.0, 0.0, 0.0, 0.0, 0.0, 0.0, 0.0, 0.0, 0.0, 0.0, 1.7151626659290214E9, 0.0, 2024-05-08 13:04:25.929
221.0, 2234.3250792414046, 0.0, 0.0, 0.0, 0.0, 0.0, 0.0, 0.0, -0.002, -0.052000000000000005, 0.988, 192.0, 0.0, 0.0, 254.0, 128.0, 30.0, 224.0, 0.0, 0.0, 0.0, 1.7151626659290373E9, 0.0, 2024-05-08 13:04:25.929
222.0, 9142.690496765435, 0.0, 0.0, 0.0, 0.0, 0.0, 0.0, 0.0, -0.002, -0.052000000000000005, 0.988, 192.0, 0.0, 0.0, 0.0, 0.0, 0.0, 0.0, 0.0, 0.0, 0.0, 1.7151626659290557E9, 0.0, 2024-05-08 13:04:25.929
223.0, 11409.40325372258, 0.0, 0.0, 0.0, 0.0, 0.0, 0.0, 0.0, -0.002, -0.052000000000000005, 0.988, 192.0, 0.0, 0.0, 0.0, 0.0, 0.0, 0.0, 0.0, 0.0, 0.0, 1.7151626659290724E9, 0.0, 2024-05-08 13:04:25.929
224.0, 10329.009333730857, 0.0, 0.0, 0.0, 0.0, 0.0, 0.0, 0.0, -0.002, -0.052000000000000005, 0.988, 192.0, 0.0, 0.0, 0.0, 0.0, 0.0, 0.0, 0.0, 0.0, 0.0, 1.7151626659290886E9, 0.0, 2024-05-08 13:04:25.929
225.0, 11498.921990266084, 0.0, 0.0, 0.0, 0.0, 0.0, 0.0, 0.0, -0.002, -0.052000000000000005, 0.988, 192.0, 0.0, 0.0, 0.0, 0.0, 0.0, 0.0, 0.0, 0.0, 0.0, 1.715162666406077E9, 0.0, 2024-05-08 13:04:26.406
226.0, 16852.29889777886, 0.0, 0.0, 0.0, 0.0, 0.0, 0.0, 0.0, -0.002, -0.052000000000000005, 0.988, 192.0, 0.0, 0.0, 0.0, 0.0, 0.0, 0.0, 0.0, 0.0, 0.0, 1.7151626664061332E9, 0.0, 2024-05-08 13:04:26.406
227.0, 21987.947462552485, 0.0, 0.0, 0.0, 0.0, 0.0, 0.0, 0.0, -0.002, -0.052000000000000005, 0.988, 192.0, 0.0, 0.0, 0.0, 0.0, 0.0, 0.0, 0.0, 0.0, 0.0, 1.7151626664061651E9, 0.0, 2024-05-08 13:04:26.406
228.0, 22418.419709017242, 0.0, 0.0, 0.0, 0.0, 0.0, 0.0, 0.0, -0.002, -0.052000000000000005, 0.988, 192.0, 0.0, 0.0, 0.0, 0.0, 0.0, 0.0, 0.0, 0.0, 0.0, 1.7151626664061973E9, 0.0, 2024-05-08 13:04:26.406
229.0, 19462.245042591698, 0.0, 0.0, 0.0, 0.0, 0.0, 0.0, 0.0, -0.002, -0.052000000000000005, 0.988, 192.0, 0.0, 0.0, 0.0, 0.0, 0.0, 0.0, 0.0, 0.0, 0.0, 1.715162666406226E9, 0.0, 2024-05-08 13:04:26.406
230.0, 18743.792920564763, 0.0, 0.0, 0.0, 0.0, 0.0, 0.0, 0.0, -0.002, -0.052000000000000005, 0.988, 192.0, 0.0, 0.0, 0.0, 0.0, 0.0, 0.0, 0.0, 0.0, 0.0, 1.7151626664062583E9, 0.0, 2024-05-08 13:04:26.406
231.0, 22313.970007177595, 0.0, 0.0, 0.0, 0.0, 0.0, 0.0, 0.0, -0.002, -0.052000000000000005, 0.988, 192.0, 0.0, 0.0, 254.0, 48.0, 30.0, 240.0, 0.0, 0.0, 0.0, 1.715162666406282E9, 0.0, 2024-05-08 13:04:26.406
232.0, 25781.641993718385, 0.0, 0.0, 0.0, 0.0, 0.0, 0.0, 0.0, -0.002, -0.052000000000000005, 0.988, 192.0, 0.0, 0.0, 0.0, 0.0, 0.0, 0.0, 0.0, 0.0, 0.0, 1.7151626664063032E9, 0.0, 2024-05-08 13:04:26.406
233.0, 24922.664454300935, 0.0, 0.0, 0.0, 0.0, 0.0, 0.0, 0.0, -0.002, -0.052000000000000005, 0.988, 192.0, 0.0, 0.0, 0.0, 0.0, 0.0, 0.0, 0.0, 0.0, 0.0, 1.7151626664063256E9, 0.0, 2024-05-08 13:04:26.406
234.0, 21002.950787896014, 0.0, 0.0, 0.0, 0.0, 0.0, 0.0, 0.0, -0.002, -0.052000000000000005, 0.988, 192.0, 0.0, 0.0, 0.0, 0.0, 0.0, 0.0, 0.0, 0.0, 0.0, 1.7151626664063723E9, 0.0, 2024-05-08 13:04:26.406
235.0, 19533.502403915216, 0.0, 0.0, 0.0, 0.0, 0.0, 0.0, 0.0, -0.002, -0.052000000000000005, 0.988, 192.0, 0.0, 0.0, 0.0, 0.0, 0.0, 0.0, 0.0, 0.0, 0.0, 1.7151626664063904E9, 0.0, 2024-05-08 13:04:26.406
236.0, 22652.017790319656, 0.0, 0.0, 0.0, 0.0, 0.0, 0.0, 0.0, -0.002, -0.052000000000000005, 0.988, 192.0, 0.0, 0.0, 0.0, 0.0, 0.0, 0.0, 0.0, 0.0, 0.0, 1.7151626664064064E9, 0.0, 2024-05-08 13:04:26.406
237.0, 26028.181735060425, 0.0, 0.0, 0.0, 0.0, 0.0, 0.0, 0.0, -0.002, -0.052000000000000005, 0.988, 192.0, 0.0, 0.0, 0.0, 0.0, 0.0, 0.0, 0.0, 0.0, 0.0, 1.7151626664064226E9, 0.0, 2024-05-08 13:04:26.406
238.0, 25084.602842879634, 0.0, 0.0, 0.0, 0.0, 0.0, 0.0, 0.0, -0.002, -0.052000000000000005, 0.988, 192.0, 0.0, 0.0, 0.0, 0.0, 0.0, 0.0, 0.0, 0.0, 0.0, 1.7151626664064388E9, 0.0, 2024-05-08 13:04:26.406
239.0, 20710.165287275948, 0.0, 0.0, 0.0, 0.0, 0.0, 0.0, 0.0, -0.002, -0.052000000000000005, 0.988, 192.0, 0.0, 0.0, 0.0, 0.0, 0.0, 0.0, 0.0, 0.0, 0.0, 1.7151626664064548E9, 0.0, 2024-05-08 13:04:26.406
240.0, 18544.370656534513, 0.0, 0.0, 0.0, 0.0, 0.0, 0.0, 0.0, -0.002, -0.052000000000000005, 0.988, 192.0, 0.0, 0.0, 0.0, 0.0, 0.0, 0.0, 0.0, 0.0, 0.0, 1.7151626664064708E9, 0.0, 2024-05-08 13:04:26.406
241.0, 20716.557886190163, 0.0, 0.0, 0.0, 0.0, 0.0, 0.0, 0.0, -0.002, -0.048, 0.992, 192.0, 255.0, 240.0, 254.0, 128.0, 31.0, 0.0, 0.0, 0.0, 0.0, 1.715162666406496E9, 0.0, 2024-05-08 13:04:26.406
242.0, 22505.636215881852, 0.0, 0.0, 0.0, 0.0, 0.0, 0.0, 0.0, -0.002, -0.048, 0.992, 192.0, 0.0, 0.0, 0.0, 0.0, 0.0, 0.0, 0.0, 0.0, 0.0, 1.7151626664065168E9, 0.0, 2024-05-08 13:04:26.406
243.0, 19878.613338305157, 0.0, 0.0, 0.0, 0.0, 0.0, 0.0, 0.0, -0.002, -0.048, 0.992, 192.0, 0.0, 0.0, 0.0, 0.0, 0.0, 0.0, 0.0, 0.0, 0.0, 1.715162666406537E9, 0.0, 2024-05-08 13:04:26.406
244.0, 14584.803829765777, 0.0, 0.0, 0.0, 0.0, 0.0, 0.0, 0.0, -0.002, -0.048, 0.992, 192.0, 0.0, 0.0, 0.0, 0.0, 0.0, 0.0, 0.0, 0.0, 0.0, 1.7151626664065578E9, 0.0, 2024-05-08 13:04:26.406
245.0, 11998.170554419823, 0.0, 0.0, 0.0, 0.0, 0.0, 0.0, 0.0, -0.002, -0.048, 0.992, 192.0, 0.0, 0.0, 0.0, 0.0, 0.0, 0.0, 0.0, 0.0, 0.0, 1.7151626664065845E9, 0.0, 2024-05-08 13:04:26.406
246.0, 13704.703891838062, 0.0, 0.0, 0.0, 0.0, 0.0, 0.0, 0.0, -0.002, -0.048, 0.992, 192.0, 0.0, 0.0, 0.0, 0.0, 0.0, 0.0, 0.0, 0.0, 0.0, 1.715162666406601E9, 0.0, 2024-05-08 13:04:26.406
247.0, 16601.355862779124, 0.0, 0.0, 0.0, 0.0, 0.0, 0.0, 0.0, -0.002, -0.048, 0.992, 192.0, 0.0, 0.0, 0.0, 0.0, 0.0, 0.0, 0.0, 0.0, 0.0, 1.7151626664066176E9, 0.0, 2024-05-08 13:04:26.406
248.0, 14885.300682222925, 0.0, 0.0, 0.0, 0.0, 0.0, 0.0, 0.0, -0.002, -0.048, 0.992, 192.0, 0.0, 0.0, 0.0, 0.0, 0.0, 0.0, 0.0, 0.0, 0.0, 1.715162666406634E9, 0.0, 2024-05-08 13:04:26.406
249.0, 8960.881407365967, 0.0, 0.0, 0.0, 0.0, 0.0, 0.0, 0.0, -0.002, -0.048, 0.992, 192.0, 0.0, 0.0, 0.0, 0.0, 0.0, 0.0, 0.0, 0.0, 0.0, 1.715162666406652E9, 0.0, 2024-05-08 13:04:26.406
