%OpenBCI Raw EXG Data
%Number of channels = 8
%Sample Rate = 250 Hz
%Board = OpenBCI_GUI$BoardCytonSerial
Sample Index, EXG Channel 0, EXG Channel 1, EXG Channel 2, EXG Channel 3, EXG Channel 4, EXG Channel 5, EXG Channel 6, EXG Channel 7, Accel Channel 0, Accel Channel 1, Accel Channel 2, Other, Other, Other, Other, Other, Other, Other, Analog Channel 0, Analog Channel 1, Analog Channel 2, Timestamp, Other, Timestamp (Formatted)
0.0, -1111.9322314181604, -187500.02235174447, -187500.02235174447, -187500.02235174447, -187500.02235174447, -187500.02235174447, -187500.02235174447, -187500.02235174447, 0.26, -0.128, 0.41400000000000003, 192.0, 8.0, 32.0, 252.0, 0.0, 12.0, 240.0, 0.0, 0.0, 0.0, 1.7161962028721807E9, 0.0, 2024-05-20 12:10:02.872
1.0, -1088.306437528901, -187500.02235174447, -187500.02235174447, -187500.02235174447, -187500.02235174447, -187500.02235174447, -187500.02235174447, -187500.02235174447, 0.26, -0.128, 0.41400000000000003, 192.0, 0.0, 0.0, 0.0, 0.0, 0.0, 0.0, 0.0, 0.0, 0.0, 1.7161962028752022E9, 0.0, 2024-05-20 12:10:02.875
2.0, -1072.4143472211776, -187500.02235174447, -187500.02235174447, -187500.02235174447, -187500.02235174447, -187500.02235174447, -187500.02235174447, -187500.02235174447, 0.26, -0.128, 0.41400000000000003, 192.0, 0.0, 0.0, 0.0, 0.0, 0.0, 0.0, 0.0, 0.0, 0.0, 1.7161962028792253E9, 0.0, 2024-05-20 12:10:02.879
3.0, -1080.6397891807305, -187500.02235174447, -187500.02235174447, -187500.02235174447, -187500.02235174447, -187500.02235174447, -187500.02235174447, -187500.02235174447, 0.26, -0.128, 0.41400000000000003, 192.0, 0.0, 0.0, 0.0, 0.0, 0.0, 0.0, 0.0, 0.0, 0.0, 1.7161962028832204E9, 0.0, 2024-05-20 12:10:02.883
4.0, -1104.4891005145432, -187500.02235174447, -187500.02235174447, -187500.02235174447, -187500.02235174447, -187500.02235174447, -187500.02235174447, -187500.02235174447, 0.26, -0.128, 0.41400000000000003, 192.0, 0.0, 0.0, 0.0, 0.0, 0.0, 0.0, 0.0, 0.0, 0.0, 1.716196202887251E9, 0.0, 2024-05-20 12:10:02.887
5.0, -1109.1159116167917, -187500.02235174447, -187500.02235174447, -187500.02235174447, -187500.02235174447, -187500.02235174447, -187500.02235174447, -187500.02235174447, 0.26, -0.128, 0.41400000000000003, 192.0, 0.0, 0.0, 0.0, 0.0, 0.0, 0.0, 0.0, 0.0, 0.0, 1.7161962028922527E9, 0.0, 2024-05-20 12:10:02.892
6.0, -1086.0712630833702, -187500.02235174447, -187500.02235174447, -187500.02235174447, -187500.02235174447, -187500.02235174447, -187500.02235174447, -187500.02235174447, 0.26, -0.128, 0.41400000000000003, 192.0, 0.0, 0.0, 0.0, 0.0, 0.0, 0.0, 0.0, 0.0, 0.0, 1.716196202895323E9, 0.0, 2024-05-20 12:10:02.895
7.0, -1067.49696344101, -187500.02235174447, -187500.02235174447, -187500.02235174447, -187500.02235174447, -187500.02235174447, -187500.02235174447, -187500.02235174447, 0.39, -0.19, 0.62, 192.0, 12.0, 48.0, 250.0, 16.0, 19.0, 96.0, 0.0, 0.0, 0.0, 1.7161962029002736E9, 0.0, 2024-05-20 12:10:02.900
8.0, -1074.6495216667083, -187500.02235174447, -187500.02235174447, -187500.02235174447, -187500.02235174447, -187500.02235174447, -187500.02235174447, -187500.02235174447, 0.39, -0.19, 0.62, 192.0, 0.0, 0.0, 0.0, 0.0, 0.0, 0.0, 0.0, 0.0, 0.0, 1.7161962029032984E9, 0.0, 2024-05-20 12:10:02.903
9.0, -1105.785501692951, -187500.02235174447, -187500.02235174447, -187500.02235174447, -187500.02235174447, -187500.02235174447, -187500.02235174447, -187500.02235174447, 0.39, -0.19, 0.62, 192.0, 0.0, 0.0, 0.0, 0.0, 0.0, 0.0, 0.0, 0.0, 0.0, 1.7161962029072812E9, 0.0, 2024-05-20 12:10:02.907
10.0, -1120.8952809447385, -187500.02235174447, -187500.02235174447, -187500.02235174447, -187500.02235174447, -187500.02235174447, -187500.02235174447, -187500.02235174447, 0.39, -0.19, 0.62, 192.0, 0.0, 0.0, 0.0, 0.0, 0.0, 0.0, 0.0, 0.0, 0.0, 1.7161962029113061E9, 0.0, 2024-05-20 12:10:02.911
11.0, -1093.335580031345, -187500.02235174447, -187500.02235174447, -187500.02235174447, -187500.02235174447, -187500.02235174447, -187500.02235174447, -187500.02235174447, 0.39, -0.19, 0.62, 192.0, 0.0, 0.0, 0.0, 0.0, 0.0, 0.0, 0.0, 0.0, 0.0, 1.7161962029143176E9, 0.0, 2024-05-20 12:10:02.914
12.0, -1070.916780342672, -187500.02235174447, -187500.02235174447, -187500.02235174447, -187500.02235174447, -187500.02235174447, -187500.02235174447, -187500.02235174447, 0.39, -0.19, 0.62, 192.0, 0.0, 0.0, 0.0, 0.0, 0.0, 0.0, 0.0, 0.0, 0.0, 1.7161962029183445E9, 0.0, 2024-05-20 12:10:02.918
13.0, -1081.5115072144874, -187500.02235174447, -187500.02235174447, -187500.02235174447, -187500.02235174447, -187500.02235174447, -187500.02235174447, -187500.02235174447, 0.39, -0.19, 0.62, 192.0, 0.0, 0.0, 0.0, 0.0, 0.0, 0.0, 0.0, 0.0, 0.0, 1.71619620292239E9, 0.0, 2024-05-20 12:10:02.922
14.0, -1107.17130984918, -187500.02235174447, -187500.02235174447, -187500.02235174447, -187500.02235174447, -187500.02235174447, -187500.02235174447, -187500.02235174447, 0.39, -0.19, 0.62, 192.0, 0.0, 0.0, 0.0, 0.0, 0.0, 0.0, 0.0, 0.0, 0.0, 1.7161962029264135E9, 0.0, 2024-05-20 12:10:02.926
15.0, -1110.3229058173783, -187500.02235174447, -187500.02235174447, -187500.02235174447, -187500.02235174447, -187500.02235174447, -187500.02235174447, -187500.02235174447, 0.39, -0.19, 0.62, 192.0, 0.0, 0.0, 0.0, 0.0, 0.0, 0.0, 0.0, 0.0, 0.0, 1.716196202931374E9, 0.0, 2024-05-20 12:10:02.931
16.0, -1081.0868240698367, -187500.02235174447, -187500.02235174447, -187500.02235174447, -187500.02235174447, -187500.02235174447, -187500.02235174447, -187500.02235174447, 0.456, -0.222, 0.732, 192.0, 14.0, 64.0, 249.0, 16.0, 22.0, 224.0, 0.0, 0.0, 0.0, 1.7161962029354112E9, 0.0, 2024-05-20 12:10:02.935
17.0, -1064.1889052616245, -187500.02235174447, -187500.02235174447, -187500.02235174447, -187500.02235174447, -187500.02235174447, -187500.02235174447, -187500.02235174447, 0.456, -0.222, 0.732, 192.0, 0.0, 0.0, 0.0, 0.0, 0.0, 0.0, 0.0, 0.0, 0.0, 1.716196202938403E9, 0.0, 2024-05-20 12:10:02.938
18.0, -1066.044100051415, -187500.02235174447, -187500.02235174447, -187500.02235174447, -187500.02235174447, -187500.02235174447, -187500.02235174447, -187500.02235174447, 0.456, -0.222, 0.732, 192.0, 0.0, 0.0, 0.0, 0.0, 0.0, 0.0, 0.0, 0.0, 0.0, 1.7161962029424417E9, 0.0, 2024-05-20 12:10:02.942
19.0, -1096.8448039108282, -187500.02235174447, -187500.02235174447, -187500.02235174447, -187500.02235174447, -187500.02235174447, -187500.02235174447, -187500.02235174447, 0.456, -0.222, 0.732, 192.0, 0.0, 0.0, 0.0, 0.0, 0.0, 0.0, 0.0, 0.0, 0.0, 1.716196202946426E9, 0.0, 2024-05-20 12:10:02.946
20.0, -1106.210184837602, -187500.02235174447, -187500.02235174447, -187500.02235174447, -187500.02235174447, -187500.02235174447, -187500.02235174447, -187500.02235174447, 0.456, -0.222, 0.732, 192.0, 0.0, 0.0, 0.0, 0.0, 0.0, 0.0, 0.0, 0.0, 0.0, 1.7161962029504411E9, 0.0, 2024-05-20 12:10:02.950
21.0, -1088.0158648509819, -187500.02235174447, -187500.02235174447, -187500.02235174447, -187500.02235174447, -187500.02235174447, -187500.02235174447, -187500.02235174447, 0.456, -0.222, 0.732, 192.0, 0.0, 0.0, 0.0, 0.0, 0.0, 0.0, 0.0, 0.0, 0.0, 1.716196202954471E9, 0.0, 2024-05-20 12:10:02.954
22.0, -1069.3074547418898, -187500.02235174447, -187500.02235174447, -187500.02235174447, -187500.02235174447, -187500.02235174447, -187500.02235174447, -187500.02235174447, 0.456, -0.222, 0.732, 192.0, 0.0, 0.0, 0.0, 0.0, 0.0, 0.0, 0.0, 0.0, 0.0, 1.716196202959504E9, 0.0, 2024-05-20 12:10:02.959
23.0, -1075.8565158672948, -187500.02235174447, -187500.02235174447, -187500.02235174447, -187500.02235174447, -187500.02235174447, -187500.02235174447, -187500.02235174447, 0.456, -0.222, 0.732, 192.0, 0.0, 0.0, 0.0, 0.0, 0.0, 0.0, 0.0, 0.0, 0.0, 1.7161962029635358E9, 0.0, 2024-05-20 12:10:02.963
24.0, -1100.465786512588, -187500.02235174447, -187500.02235174447, -187500.02235174447, -187500.02235174447, -187500.02235174447, -187500.02235174447, -187500.02235174447, 0.456, -0.222, 0.732, 192.0, 0.0, 0.0, 0.0, 0.0, 0.0, 0.0, 0.0, 0.0, 0.0, 1.7161962029675026E9, 0.0, 2024-05-20 12:10:02.967
25.0, -1102.7456644470292, -187500.02235174447, -187500.02235174447, -187500.02235174447, -187500.02235174447, -187500.02235174447, -187500.02235174447, -187500.02235174447, 0.456, -0.222, 0.732, 192.0, 0.0, 0.0, 0.0, 0.0, 0.0, 0.0, 0.0, 0.0, 0.0, 1.7161962029705267E9, 0.0, 2024-05-20 12:10:02.970
26.0, -1075.3200740003674, -187500.02235174447, -187500.02235174447, -187500.02235174447, -187500.02235174447, -187500.02235174447, -187500.02235174447, -187500.02235174447, 0.496, -0.23600000000000002, 0.782, 192.0, 15.0, 128.0, 248.0, 160.0, 24.0, 112.0, 0.0, 0.0, 0.0, 1.716196202974573E9, 0.0, 2024-05-20 12:10:02.974
27.0, -1059.1597627591805, -187500.02235174447, -187500.02235174447, -187500.02235174447, -187500.02235174447, -187500.02235174447, -187500.02235174447, -187500.02235174447, 0.496, -0.23600000000000002, 0.782, 192.0, 0.0, 0.0, 0.0, 0.0, 0.0, 0.0, 0.0, 0.0, 0.0, 1.7161962029785943E9, 0.0, 2024-05-20 12:10:02.978
28.0, -1069.0168820639708, -187500.02235174447, -187500.02235174447, -187500.02235174447, -187500.02235174447, -187500.02235174447, -187500.02235174447, -187500.02235174447, 0.496, -0.23600000000000002, 0.782, 192.0, 0.0, 0.0, 0.0, 0.0, 0.0, 0.0, 0.0, 0.0, 0.0, 1.7161962029845812E9, 0.0, 2024-05-20 12:10:02.984
29.0, -1093.8273184093616, -187500.02235174447, -187500.02235174447, -187500.02235174447, -187500.02235174447, -187500.02235174447, -187500.02235174447, -187500.02235174447, 0.496, -0.23600000000000002, 0.782, 192.0, 0.0, 0.0, 0.0, 0.0, 0.0, 0.0, 0.0, 0.0, 0.0, 1.716196202988584E9, 0.0, 2024-05-20 12:10:02.988
30.0, -1102.365684791289, -187500.02235174447, -187500.02235174447, -187500.02235174447, -187500.02235174447, -187500.02235174447, -187500.02235174447, -187500.02235174447, 0.496, -0.23600000000000002, 0.782, 192.0, 0.0, 0.0, 0.0, 0.0, 0.0, 0.0, 0.0, 0.0, 0.0, 1.716196202992626E9, 0.0, 2024-05-20 12:10:02.992
31.0, -1086.0042078500041, -187500.02235174447, -187500.02235174447, -187500.02235174447, -187500.02235174447, -187500.02235174447, -187500.02235174447, -187500.02235174447, 0.496, -0.23600000000000002, 0.782, 192.0, 0.0, 0.0, 0.0, 0.0, 0.0, 0.0, 0.0, 0.0, 0.0, 1.7161962029956276E9, 0.0, 2024-05-20 12:10:02.995
32.0, -1063.7418703725184, -187500.02235174447, -187500.02235174447, -187500.02235174447, -187500.02235174447, -187500.02235174447, -187500.02235174447, -187500.02235174447, 0.496, -0.23600000000000002, 0.782, 192.0, 0.0, 0.0, 0.0, 0.0, 0.0, 0.0, 0.0, 0.0, 0.0, 1.7161962029986403E9, 0.0, 2024-05-20 12:10:02.998
33.0, -1068.301626241401, -187500.02235174447, -187500.02235174447, -187500.02235174447, -187500.02235174447, -187500.02235174447, -187500.02235174447, -187500.02235174447, 0.496, -0.23600000000000002, 0.782, 192.0, 0.0, 0.0, 0.0, 0.0, 0.0, 0.0, 0.0, 0.0, 0.0, 1.716196203002718E9, 0.0, 2024-05-20 12:10:03.002
34.0, -1097.1800800776577, -187500.02235174447, -187500.02235174447, -187500.02235174447, -187500.02235174447, -187500.02235174447, -187500.02235174447, -187500.02235174447, 0.496, -0.23600000000000002, 0.782, 192.0, 0.0, 0.0, 0.0, 0.0, 0.0, 0.0, 0.0, 0.0, 0.0, 1.7161962030066416E9, 0.0, 2024-05-20 12:10:03.006
35.0, -1104.9361354036494, -187500.02235174447, -187500.02235174447, -187500.02235174447, -187500.02235174447, -187500.02235174447, -187500.02235174447, -187500.02235174447, 0.496, -0.23600000000000002, 0.782, 192.0, 0.0, 0.0, 0.0, 0.0, 0.0, 0.0, 0.0, 0.0, 0.0, 1.7161962030106664E9, 0.0, 2024-05-20 12:10:03.010
36.0, -1084.1043095713032, -187500.02235174447, -187500.02235174447, -187500.02235174447, -187500.02235174447, -187500.02235174447, -187500.02235174447, -187500.02235174447, 0.508, -0.242, 0.808, 192.0, 15.0, 224.0, 248.0, 112.0, 25.0, 64.0, 0.0, 0.0, 0.0, 1.7161962030146725E9, 0.0, 2024-05-20 12:10:03.014
37.0, -1059.7409081150186, -187500.02235174447, -187500.02235174447, -187500.02235174447, -187500.02235174447, -187500.02235174447, -187500.02235174447, -187500.02235174447, 0.508, -0.242, 0.808, 192.0, 0.0, 0.0, 0.0, 0.0, 0.0, 0.0, 0.0, 0.0, 0.0, 1.7161962030187395E9, 0.0, 2024-05-20 12:10:03.018
38.0, -1067.3405012298228, -187500.02235174447, -187500.02235174447, -187500.02235174447, -187500.02235174447, -187500.02235174447, -187500.02235174447, -187500.02235174447, 0.508, -0.242, 0.808, 192.0, 0.0, 0.0, 0.0, 0.0, 0.0, 0.0, 0.0, 0.0, 0.0, 1.7161962030227444E9, 0.0, 2024-05-20 12:10:03.022
39.0, -1097.1800800776577, -187500.02235174447, -187500.02235174447, -187500.02235174447, -187500.02235174447, -187500.02235174447, -187500.02235174447, -187500.02235174447, 0.508, -0.242, 0.808, 192.0, 0.0, 0.0, 0.0, 0.0, 0.0, 0.0, 0.0, 0.0, 0.0, 1.7161962030257573E9, 0.0, 2024-05-20 12:10:03.025
40.0, -1105.0925976148364, -187500.02235174447, -187500.02235174447, -187500.02235174447, -187500.02235174447, -187500.02235174447, -187500.02235174447, -187500.02235174447, 0.508, -0.242, 0.808, 192.0, 0.0, 0.0, 0.0, 0.0, 0.0, 0.0, 0.0, 0.0, 0.0, 1.7161962030307662E9, 0.0, 2024-05-20 12:10:03.030
41.0, -1079.2539810245016, -187500.02235174447, -187500.02235174447, -187500.02235174447, -187500.02235174447, -187500.02235174447, -187500.02235174447, -187500.02235174447, 0.508, -0.242, 0.808, 192.0, 0.0, 0.0, 0.0, 0.0, 0.0, 0.0, 0.0, 0.0, 0.0, 1.7161962030347767E9, 0.0, 2024-05-20 12:10:03.034
42.0, -1060.6796813821413, -187500.02235174447, -187500.02235174447, -187500.02235174447, -187500.02235174447, -187500.02235174447, -187500.02235174447, -187500.02235174447, 0.508, -0.242, 0.808, 192.0, 0.0, 0.0, 0.0, 0.0, 0.0, 0.0, 0.0, 0.0, 0.0, 1.7161962030387788E9, 0.0, 2024-05-20 12:10:03.038
43.0, -1070.335634986834, -187500.02235174447, -187500.02235174447, -187500.02235174447, -187500.02235174447, -187500.02235174447, -187500.02235174447, -187500.02235174447, 0.508, -0.242, 0.808, 192.0, 0.0, 0.0, 0.0, 0.0, 0.0, 0.0, 0.0, 0.0, 0.0, 1.7161962030428023E9, 0.0, 2024-05-20 12:10:03.042
44.0, -1097.3812457777556, -187500.02235174447, -187500.02235174447, -187500.02235174447, -187500.02235174447, -187500.02235174447, -187500.02235174447, -187500.02235174447, 0.508, -0.242, 0.808, 192.0, 0.0, 0.0, 0.0, 0.0, 0.0, 0.0, 0.0, 0.0, 0.0, 1.7161962030468252E9, 0.0, 2024-05-20 12:10:03.046
45.0, -1102.589202235842, -187500.02235174447, -187500.02235174447, -187500.02235174447, -187500.02235174447, -187500.02235174447, -187500.02235174447, -187500.02235174447, 0.508, -0.242, 0.808, 192.0, 0.0, 0.0, 0.0, 0.0, 0.0, 0.0, 0.0, 0.0, 0.0, 1.716196203051833E9, 0.0, 2024-05-20 12:10:03.051
46.0, -1082.3161700148785, -187500.02235174447, -187500.02235174447, -187500.02235174447, -187500.02235174447, -187500.02235174447, -187500.02235174447, -187500.02235174447, 0.514, -0.244, 0.81, 192.0, 16.0, 16.0, 248.0, 96.0, 25.0, 80.0, 0.0, 0.0, 0.0, 1.7161962030558677E9, 0.0, 2024-05-20 12:10:03.055
47.0, -1060.5232191709542, -187500.02235174447, -187500.02235174447, -187500.02235174447, -187500.02235174447, -187500.02235174447, -187500.02235174447, -187500.02235174447, 0.514, -0.244, 0.81, 192.0, 0.0, 0.0, 0.0, 0.0, 0.0, 0.0, 0.0, 0.0, 0.0, 1.7161962030599928E9, 0.0, 2024-05-20 12:10:03.059
48.0, -1069.2180477640686, -187500.02235174447, -187500.02235174447, -187500.02235174447, -187500.02235174447, -187500.02235174447, -187500.02235174447, -187500.02235174447, 0.514, -0.244, 0.81, 192.0, 0.0, 0.0, 0.0, 0.0, 0.0, 0.0, 0.0, 0.0, 0.0, 1.716196203062883E9, 0.0, 2024-05-20 12:10:03.062
49.0, -1095.660161454697, -187500.02235174447, -187500.02235174447, -187500.02235174447, -187500.02235174447, -187500.02235174447, -187500.02235174447, -187500.02235174447, 0.514, -0.244, 0.81, 192.0, 0.0, 0.0, 0.0, 0.0, 0.0, 0.0, 0.0, 0.0, 0.0, 1.7161962030669367E9, 0.0, 2024-05-20 12:10:03.066
50.0, -1098.7670539339847, -187500.02235174447, -187500.02235174447, -187500.02235174447, -187500.02235174447, -187500.02235174447, -187500.02235174447, -187500.02235174447, 0.514, -0.244, 0.81, 192.0, 0.0, 0.0, 0.0, 0.0, 0.0, 0.0, 0.0, 0.0, 0.0, 1.7161962030709617E9, 0.0, 2024-05-20 12:10:03.070
51.0, -1081.0421205809262, -187500.02235174447, -187500.02235174447, -187500.02235174447, -187500.02235174447, -187500.02235174447, -187500.02235174447, -187500.02235174447, 0.514, -0.244, 0.81, 192.0, 0.0, 0.0, 0.0, 0.0, 0.0, 0.0, 0.0, 0.0, 0.0, 1.7161962030769591E9, 0.0, 2024-05-20 12:10:03.076
52.0, -1061.2161232490687, -187500.02235174447, -187500.02235174447, -187500.02235174447, -187500.02235174447, -187500.02235174447, -187500.02235174447, -187500.02235174447, 0.514, -0.244, 0.81, 192.0, 0.0, 0.0, 0.0, 0.0, 0.0, 0.0, 0.0, 0.0, 0.0, 1.7161962030799606E9, 0.0, 2024-05-20 12:10:03.079
53.0, -1067.0946320408145, -187500.02235174447, -187500.02235174447, -187500.02235174447, -187500.02235174447, -187500.02235174447, -187500.02235174447, -187500.02235174447, 0.514, -0.244, 0.81, 192.0, 0.0, 0.0, 0.0, 0.0, 0.0, 0.0, 0.0, 0.0, 0.0, 1.7161962030829556E9, 0.0, 2024-05-20 12:10:03.082
54.0, -1095.2131265655908, -187500.02235174447, -187500.02235174447, -187500.02235174447, -187500.02235174447, -187500.02235174447, -187500.02235174447, -187500.02235174447, 0.514, -0.244, 0.81, 192.0, 0.0, 0.0, 0.0, 0.0, 0.0, 0.0, 0.0, 0.0, 0.0, 1.716196203086126E9, 0.0, 2024-05-20 12:10:03.086
55.0, -1108.8029871944175, -187500.02235174447, -187500.02235174447, -187500.02235174447, -187500.02235174447, -187500.02235174447, -187500.02235174447, -187500.02235174447, 0.52, -0.242, 0.8200000000000001, 192.0, 16.0, 64.0, 248.0, 112.0, 25.0, 160.0, 0.0, 0.0, 0.0, 1.716196203090994E9, 0.0, 2024-05-20 12:10:03.090
56.0, -1081.176231047658, -187500.02235174447, -187500.02235174447, -187500.02235174447, -187500.02235174447, -187500.02235174447, -187500.02235174447, -187500.02235174447, 0.52, -0.242, 0.8200000000000001, 192.0, 0.0, 0.0, 0.0, 0.0, 0.0, 0.0, 0.0, 0.0, 0.0, 1.7161962030950477E9, 0.0, 2024-05-20 12:10:03.095
57.0, -1057.7739546029513, -187500.02235174447, -187500.02235174447, -187500.02235174447, -187500.02235174447, -187500.02235174447, -187500.02235174447, -187500.02235174447, 0.52, -0.242, 0.8200000000000001, 192.0, 0.0, 0.0, 0.0, 0.0, 0.0, 0.0, 0.0, 0.0, 0.0, 1.716196203099003E9, 0.0, 2024-05-20 12:10:03.099
58.0, -1070.7826698759402, -187500.02235174447, -187500.02235174447, -187500.02235174447, -187500.02235174447, -187500.02235174447, -187500.02235174447, -187500.02235174447, 0.52, -0.242, 0.8200000000000001, 192.0, 0.0, 0.0, 0.0, 0.0, 0.0, 0.0, 0.0, 0.0, 0.0, 1.7161962031020608E9, 0.0, 2024-05-20 12:10:03.102
59.0, -1090.4522049966104, -187500.02235174447, -187500.02235174447, -187500.02235174447, -187500.02235174447, -187500.02235174447, -187500.02235174447, -187500.02235174447, 0.52, -0.242, 0.8200000000000001, 192.0, 0.0, 0.0, 0.0, 0.0, 0.0, 0.0, 0.0, 0.0, 0.0, 1.7161962031060812E9, 0.0, 2024-05-20 12:10:03.106
60.0, -1100.0634551123924, -187500.02235174447, -187500.02235174447, -187500.02235174447, -187500.02235174447, -187500.02235174447, -187500.02235174447, -187500.02235174447, 0.52, -0.242, 0.8200000000000001, 192.0, 0.0, 0.0, 0.0, 0.0, 0.0, 0.0, 0.0, 0.0, 0.0, 1.7161962031100745E9, 0.0, 2024-05-20 12:10:03.110
61.0, -1076.8176408788731, -187500.02235174447, -187500.02235174447, -187500.02235174447, -187500.02235174447, -187500.02235174447, -187500.02235174447, -187500.02235174447, 0.52, -0.242, 0.8200000000000001, 192.0, 0.0, 0.0, 0.0, 0.0, 0.0, 0.0, 0.0, 0.0, 0.0, 1.7161962031141317E9, 0.0, 2024-05-20 12:10:03.114
62.0, -1056.2763877244458, -187500.02235174447, -187500.02235174447, -187500.02235174447, -187500.02235174447, -187500.02235174447, -187500.02235174447, -187500.02235174447, 0.52, -0.242, 0.8200000000000001, 192.0, 0.0, 0.0, 0.0, 0.0, 0.0, 0.0, 0.0, 0.0, 0.0, 1.7161962031191392E9, 0.0, 2024-05-20 12:10:03.119
63.0, -1062.1772482606468, -187500.02235174447, -187500.02235174447, -187500.02235174447, -187500.02235174447, -187500.02235174447, -187500.02235174447, -187500.02235174447, 0.52, -0.242, 0.8200000000000001, 192.0, 0.0, 0.0, 0.0, 0.0, 0.0, 0.0, 0.0, 0.0, 0.0, 1.7161962031231396E9, 0.0, 2024-05-20 12:10:03.123
64.0, -1090.139280574236, -187500.02235174447, -187500.02235174447, -187500.02235174447, -187500.02235174447, -187500.02235174447, -187500.02235174447, -187500.02235174447, 0.52, -0.242, 0.8200000000000001, 192.0, 0.0, 0.0, 0.0, 0.0, 0.0, 0.0, 0.0, 0.0, 0.0, 1.7161962031271417E9, 0.0, 2024-05-20 12:10:03.127
65.0, -1103.4832720140544, -187500.02235174447, -187500.02235174447, -187500.02235174447, -187500.02235174447, -187500.02235174447, -187500.02235174447, -187500.02235174447, 0.524, -0.248, 0.8220000000000001, 192.0, 16.0, 96.0, 248.0, 64.0, 25.0, 176.0, 0.0, 0.0, 0.0, 1.7161962031311235E9, 0.0, 2024-05-20 12:10:03.131
66.0, -1084.7748619049623, -187500.02235174447, -187500.02235174447, -187500.02235174447, -187500.02235174447, -187500.02235174447, -187500.02235174447, -187500.02235174447, 0.524, -0.248, 0.8220000000000001, 192.0, 0.0, 0.0, 0.0, 0.0, 0.0, 0.0, 0.0, 0.0, 0.0, 1.7161962031341827E9, 0.0, 2024-05-20 12:10:03.134
67.0, -1057.1257540137476, -187500.02235174447, -187500.02235174447, -187500.02235174447, -187500.02235174447, -187500.02235174447, -187500.02235174447, -187500.02235174447, 0.524, -0.248, 0.8220000000000001, 192.0, 0.0, 0.0, 0.0, 0.0, 0.0, 0.0, 0.0, 0.0, 0.0, 1.7161962031381862E9, 0.0, 2024-05-20 12:10:03.138
68.0, -1064.9265128286497, -187500.02235174447, -187500.02235174447, -187500.02235174447, -187500.02235174447, -187500.02235174447, -187500.02235174447, -187500.02235174447, 0.524, -0.248, 0.8220000000000001, 192.0, 0.0, 0.0, 0.0, 0.0, 0.0, 0.0, 0.0, 0.0, 0.0, 1.7161962031422002E9, 0.0, 2024-05-20 12:10:03.142
69.0, -1098.588239978342, -187500.02235174447, -187500.02235174447, -187500.02235174447, -187500.02235174447, -187500.02235174447, -187500.02235174447, -187500.02235174447, 0.524, -0.248, 0.8220000000000001, 192.0, 0.0, 0.0, 0.0, 0.0, 0.0, 0.0, 0.0, 0.0, 0.0, 1.7161962031462023E9, 0.0, 2024-05-20 12:10:03.146
70.0, -1110.1217401172805, -187500.02235174447, -187500.02235174447, -187500.02235174447, -187500.02235174447, -187500.02235174447, -187500.02235174447, -187500.02235174447, 0.524, -0.248, 0.8220000000000001, 192.0, 0.0, 0.0, 0.0, 0.0, 0.0, 0.0, 0.0, 0.0, 0.0, 1.7161962031512177E9, 0.0, 2024-05-20 12:10:03.151
71.0, -1082.0032455925043, -187500.02235174447, -187500.02235174447, -187500.02235174447, -187500.02235174447, -187500.02235174447, -187500.02235174447, -187500.02235174447, 0.524, -0.248, 0.8220000000000001, 192.0, 0.0, 0.0, 0.0, 0.0, 0.0, 0.0, 0.0, 0.0, 0.0, 1.7161962031552315E9, 0.0, 2024-05-20 12:10:03.155
72.0, -1060.4114604486776, -187500.02235174447, -187500.02235174447, -187500.02235174447, -187500.02235174447, -187500.02235174447, -187500.02235174447, -187500.02235174447, 0.524, -0.248, 0.8220000000000001, 192.0, 0.0, 0.0, 0.0, 0.0, 0.0, 0.0, 0.0, 0.0, 0.0, 1.7161962031582427E9, 0.0, 2024-05-20 12:10:03.158
73.0, -1069.1286407862474, -187500.02235174447, -187500.02235174447, -187500.02235174447, -187500.02235174447, -187500.02235174447, -187500.02235174447, -187500.02235174447, 0.524, -0.248, 0.8220000000000001, 192.0, 0.0, 0.0, 0.0, 0.0, 0.0, 0.0, 0.0, 0.0, 0.0, 1.7161962031622543E9, 0.0, 2024-05-20 12:10:03.162
74.0, -1094.9896091210378, -187500.02235174447, -187500.02235174447, -187500.02235174447, -187500.02235174447, -187500.02235174447, -187500.02235174447, -187500.02235174447, 0.524, -0.248, 0.8220000000000001, 192.0, 0.0, 0.0, 0.0, 0.0, 0.0, 0.0, 0.0, 0.0, 0.0, 1.7161962031662693E9, 0.0, 2024-05-20 12:10:03.166
75.0, -1098.1188533447807, -187500.02235174447, -187500.02235174447, -187500.02235174447, -187500.02235174447, -187500.02235174447, -187500.02235174447, -187500.02235174447, 0.526, -0.26, 0.8240000000000001, 192.0, 16.0, 112.0, 247.0, 224.0, 25.0, 192.0, 0.0, 0.0, 0.0, 1.716196203170262E9, 0.0, 2024-05-20 12:10:03.170
76.0, -1079.9915885915266, -187500.02235174447, -187500.02235174447, -187500.02235174447, -187500.02235174447, -187500.02235174447, -187500.02235174447, -187500.02235174447, 0.526, -0.26, 0.8240000000000001, 192.0, 0.0, 0.0, 0.0, 0.0, 0.0, 0.0, 0.0, 0.0, 0.0, 1.7161962031742969E9, 0.0, 2024-05-20 12:10:03.174
77.0, -1057.5951406473089, -187500.02235174447, -187500.02235174447, -187500.02235174447, -187500.02235174447, -187500.02235174447, -187500.02235174447, -187500.02235174447, 0.526, -0.26, 0.8240000000000001, 192.0, 0.0, 0.0, 0.0, 0.0, 0.0, 0.0, 0.0, 0.0, 0.0, 1.716196203178364E9, 0.0, 2024-05-20 12:10:03.178
78.0, -1064.8147541063731, -187500.02235174447, -187500.02235174447, -187500.02235174447, -187500.02235174447, -187500.02235174447, -187500.02235174447, -187500.02235174447, 0.526, -0.26, 0.8240000000000001, 192.0, 0.0, 0.0, 0.0, 0.0, 0.0, 0.0, 0.0, 0.0, 0.0, 1.7161962031833403E9, 0.0, 2024-05-20 12:10:03.183
79.0, -1096.5318794884538, -187500.02235174447, -187500.02235174447, -187500.02235174447, -187500.02235174447, -187500.02235174447, -187500.02235174447, -187500.02235174447, 0.526, -0.26, 0.8240000000000001, 192.0, 0.0, 0.0, 0.0, 0.0, 0.0, 0.0, 0.0, 0.0, 0.0, 1.7161962031863616E9, 0.0, 2024-05-20 12:10:03.186
80.0, -1107.0371993824483, -187500.02235174447, -187500.02235174447, -187500.02235174447, -187500.02235174447, -187500.02235174447, -187500.02235174447, -187500.02235174447, 0.526, -0.26, 0.8240000000000001, 192.0, 0.0, 0.0, 0.0, 0.0, 0.0, 0.0, 0.0, 0.0, 0.0, 1.716196203190392E9, 0.0, 2024-05-20 12:10:03.190
81.0, -1084.4395857381328, -187500.02235174447, -187500.02235174447, -187500.02235174447, -187500.02235174447, -187500.02235174447, -187500.02235174447, -187500.02235174447, 0.526, -0.26, 0.8240000000000001, 192.0, 0.0, 0.0, 0.0, 0.0, 0.0, 0.0, 0.0, 0.0, 0.0, 1.7161962031944292E9, 0.0, 2024-05-20 12:10:03.194
82.0, -1059.9420738151161, -187500.02235174447, -187500.02235174447, -187500.02235174447, -187500.02235174447, -187500.02235174447, -187500.02235174447, -187500.02235174447, 0.526, -0.26, 0.8240000000000001, 192.0, 0.0, 0.0, 0.0, 0.0, 0.0, 0.0, 0.0, 0.0, 0.0, 1.716196203198394E9, 0.0, 2024-05-20 12:10:03.198
83.0, -1069.4192134641664, -187500.02235174447, -187500.02235174447, -187500.02235174447, -187500.02235174447, -187500.02235174447, -187500.02235174447, -187500.02235174447, 0.526, -0.26, 0.8240000000000001, 192.0, 0.0, 0.0, 0.0, 0.0, 0.0, 0.0, 0.0, 0.0, 0.0, 1.7161962032024024E9, 0.0, 2024-05-20 12:10:03.202
84.0, -1097.716521944585, -187500.02235174447, -187500.02235174447, -187500.02235174447, -187500.02235174447, -187500.02235174447, -187500.02235174447, -187500.02235174447, 0.526, -0.26, 0.8240000000000001, 192.0, 0.0, 0.0, 0.0, 0.0, 0.0, 0.0, 0.0, 0.0, 0.0, 1.7161962032064419E9, 0.0, 2024-05-20 12:10:03.206
85.0, -1108.5794697498643, -187500.02235174447, -187500.02235174447, -187500.02235174447, -187500.02235174447, -187500.02235174447, -187500.02235174447, -187500.02235174447, 0.528, -0.258, 0.8180000000000001, 192.0, 16.0, 128.0, 247.0, 240.0, 25.0, 144.0, 0.0, 0.0, 0.0, 1.7161962032114558E9, 0.0, 2024-05-20 12:10:03.211
86.0, -1086.6300566947527, -187500.02235174447, -187500.02235174447, -187500.02235174447, -187500.02235174447, -187500.02235174447, -187500.02235174447, -187500.02235174447, 0.528, -0.258, 0.8180000000000001, 192.0, 0.0, 0.0, 0.0, 0.0, 0.0, 0.0, 0.0, 0.0, 0.0, 1.7161962032144377E9, 0.0, 2024-05-20 12:10:03.214
87.0, -1061.886675582728, -187500.02235174447, -187500.02235174447, -187500.02235174447, -187500.02235174447, -187500.02235174447, -187500.02235174447, -187500.02235174447, 0.528, -0.258, 0.8180000000000001, 192.0, 0.0, 0.0, 0.0, 0.0, 0.0, 0.0, 0.0, 0.0, 0.0, 1.7161962032184563E9, 0.0, 2024-05-20 12:10:03.218
88.0, -1065.664120395675, -187500.02235174447, -187500.02235174447, -187500.02235174447, -187500.02235174447, -187500.02235174447, -187500.02235174447, -187500.02235174447, 0.528, -0.258, 0.8180000000000001, 192.0, 0.0, 0.0, 0.0, 0.0, 0.0, 0.0, 0.0, 0.0, 0.0, 1.7161962032224612E9, 0.0, 2024-05-20 12:10:03.222
89.0, -1092.2850480419456, -187500.02235174447, -187500.02235174447, -187500.02235174447, -187500.02235174447, -187500.02235174447, -187500.02235174447, -187500.02235174447, 0.528, -0.258, 0.8180000000000001, 192.0, 0.0, 0.0, 0.0, 0.0, 0.0, 0.0, 0.0, 0.0, 0.0, 1.7161962032266283E9, 0.0, 2024-05-20 12:10:03.226
90.0, -1110.7699407064845, -187500.02235174447, -187500.02235174447, -187500.02235174447, -187500.02235174447, -187500.02235174447, -187500.02235174447, -187500.02235174447, 0.528, -0.258, 0.8180000000000001, 192.0, 0.0, 0.0, 0.0, 0.0, 0.0, 0.0, 0.0, 0.0, 0.0, 1.7161962032305171E9, 0.0, 2024-05-20 12:10:03.230
91.0, -1095.6154579657864, -187500.02235174447, -187500.02235174447, -187500.02235174447, -187500.02235174447, -187500.02235174447, -187500.02235174447, -187500.02235174447, 0.528, -0.258, 0.8180000000000001, 192.0, 0.0, 0.0, 0.0, 0.0, 0.0, 0.0, 0.0, 0.0, 0.0, 1.716196203234491E9, 0.0, 2024-05-20 12:10:03.234
92.0, -1072.9731408325601, -187500.02235174447, -187500.02235174447, -187500.02235174447, -187500.02235174447, -187500.02235174447, -187500.02235174447, -187500.02235174447, 0.528, -0.258, 0.8180000000000001, 192.0, 0.0, 0.0, 0.0, 0.0, 0.0, 0.0, 0.0, 0.0, 0.0, 1.7161962032395513E9, 0.0, 2024-05-20 12:10:03.239
93.0, -1076.8176408788731, -187500.02235174447, -187500.02235174447, -187500.02235174447, -187500.02235174447, -187500.02235174447, -187500.02235174447, -187500.02235174447, 0.528, -0.258, 0.8180000000000001, 192.0, 0.0, 0.0, 0.0, 0.0, 0.0, 0.0, 0.0, 0.0, 0.0, 1.7161962032425575E9, 0.0, 2024-05-20 12:10:03.242
94.0, -1097.2247835665685, -187500.02235174447, -187500.02235174447, -187500.02235174447, -187500.02235174447, -187500.02235174447, -187500.02235174447, -187500.02235174447, 0.52, -0.258, 0.8240000000000001, 192.0, 16.0, 64.0, 247.0, 240.0, 25.0, 192.0, 0.0, 0.0, 0.0, 1.7161962032466292E9, 0.0, 2024-05-20 12:10:03.246
95.0, -1112.334562818356, -187500.02235174447, -187500.02235174447, -187500.02235174447, -187500.02235174447, -187500.02235174447, -187500.02235174447, -187500.02235174447, 0.52, -0.258, 0.8240000000000001, 192.0, 0.0, 0.0, 0.0, 0.0, 0.0, 0.0, 0.0, 0.0, 0.0, 1.7161962032505467E9, 0.0, 2024-05-20 12:10:03.250
96.0, -1092.396806764222, -187500.02235174447, -187500.02235174447, -187500.02235174447, -187500.02235174447, -187500.02235174447, -187500.02235174447, -187500.02235174447, 0.52, -0.258, 0.8240000000000001, 192.0, 0.0, 0.0, 0.0, 0.0, 0.0, 0.0, 0.0, 0.0, 0.0, 1.716196203254576E9, 0.0, 2024-05-20 12:10:03.254
97.0, -1070.5368006869317, -187500.02235174447, -187500.02235174447, -187500.02235174447, -187500.02235174447, -187500.02235174447, -187500.02235174447, -187500.02235174447, 0.52, -0.258, 0.8240000000000001, 192.0, 0.0, 0.0, 0.0, 0.0, 0.0, 0.0, 0.0, 0.0, 0.0, 1.716196203258632E9, 0.0, 2024-05-20 12:10:03.258
98.0, -1075.722405400563, -187500.02235174447, -187500.02235174447, -187500.02235174447, -187500.02235174447, -187500.02235174447, -187500.02235174447, -187500.02235174447, 0.52, -0.258, 0.8240000000000001, 192.0, 0.0, 0.0, 0.0, 0.0, 0.0, 0.0, 0.0, 0.0, 0.0, 1.7161962032626495E9, 0.0, 2024-05-20 12:10:03.262
99.0, -1101.3598562908003, -187500.02235174447, -187500.02235174447, -187500.02235174447, -187500.02235174447, -187500.02235174447, -187500.02235174447, -187500.02235174447, 0.52, -0.258, 0.8240000000000001, 192.0, 0.0, 0.0, 0.0, 0.0, 0.0, 0.0, 0.0, 0.0, 0.0, 1.7161962032666752E9, 0.0, 2024-05-20 12:10:03.266
100.0, -1112.26750758499, -187500.02235174447, -187500.02235174447, -187500.02235174447, -187500.02235174447, -187500.02235174447, -187500.02235174447, -187500.02235174447, 0.52, -0.258, 0.8240000000000001, 192.0, 0.0, 0.0, 0.0, 0.0, 0.0, 0.0, 0.0, 0.0, 0.0, 1.716196203270654E9, 0.0, 2024-05-20 12:10:03.270
101.0, -1085.043082838426, -187500.02235174447, -187500.02235174447, -187500.02235174447, -187500.02235174447, -187500.02235174447, -187500.02235174447, -187500.02235174447, 0.52, -0.258, 0.8240000000000001, 192.0, 0.0, 0.0, 0.0, 0.0, 0.0, 0.0, 0.0, 0.0, 0.0, 1.7161962032737396E9, 0.0, 2024-05-20 12:10:03.273
102.0, -1061.5513994158982, -187500.02235174447, -187500.02235174447, -187500.02235174447, -187500.02235174447, -187500.02235174447, -187500.02235174447, -187500.02235174447, 0.52, -0.258, 0.8240000000000001, 192.0, 0.0, 0.0, 0.0, 0.0, 0.0, 0.0, 0.0, 0.0, 0.0, 1.7161962032777593E9, 0.0, 2024-05-20 12:10:03.277
103.0, -1066.9381698296274, -187500.02235174447, -187500.02235174447, -187500.02235174447, -187500.02235174447, -187500.02235174447, -187500.02235174447, -187500.02235174447, 0.52, -0.258, 0.8240000000000001, 192.0, 0.0, 0.0, 0.0, 0.0, 0.0, 0.0, 0.0, 0.0, 0.0, 1.7161962032827325E9, 0.0, 2024-05-20 12:10:03.282
104.0, -1095.7719201769735, -187500.02235174447, -187500.02235174447, -187500.02235174447, -187500.02235174447, -187500.02235174447, -187500.02235174447, -187500.02235174447, 0.52, -0.256, 0.8300000000000001, 192.0, 16.0, 64.0, 248.0, 0.0, 25.0, 240.0, 0.0, 0.0, 0.0, 1.716196203286755E9, 0.0, 2024-05-20 12:10:03.286
105.0, -1107.8865656717498, -187500.02235174447, -187500.02235174447, -187500.02235174447, -187500.02235174447, -187500.02235174447, -187500.02235174447, -187500.02235174447, 0.52, -0.256, 0.8300000000000001, 192.0, 0.0, 0.0, 0.0, 0.0, 0.0, 0.0, 0.0, 0.0, 0.0, 1.716196203290742E9, 0.0, 2024-05-20 12:10:03.290
106.0, -1086.4065392501998, -187500.02235174447, -187500.02235174447, -187500.02235174447, -187500.02235174447, -187500.02235174447, -187500.02235174447, -187500.02235174447, 0.52, -0.256, 0.8300000000000001, 192.0, 0.0, 0.0, 0.0, 0.0, 0.0, 0.0, 0.0, 0.0, 0.0, 1.716196203293802E9, 0.0, 2024-05-20 12:10:03.293
107.0, -1069.1733442751581, -187500.02235174447, -187500.02235174447, -187500.02235174447, -187500.02235174447, -187500.02235174447, -187500.02235174447, -187500.02235174447, 0.52, -0.256, 0.8300000000000001, 192.0, 0.0, 0.0, 0.0, 0.0, 0.0, 0.0, 0.0, 0.0, 0.0, 1.7161962032978163E9, 0.0, 2024-05-20 12:10:03.297
108.0, -1069.9556553310938, -187500.02235174447, -187500.02235174447, -187500.02235174447, -187500.02235174447, -187500.02235174447, -187500.02235174447, -187500.02235174447, 0.52, -0.256, 0.8300000000000001, 192.0, 0.0, 0.0, 0.0, 0.0, 0.0, 0.0, 0.0, 0.0, 0.0, 1.71619620330178E9, 0.0, 2024-05-20 12:10:03.301
109.0, -1105.6737429706745, -187500.02235174447, -187500.02235174447, -187500.02235174447, -187500.02235174447, -187500.02235174447, -187500.02235174447, -187500.02235174447, 0.52, -0.256, 0.8300000000000001, 192.0, 0.0, 0.0, 0.0, 0.0, 0.0, 0.0, 0.0, 0.0, 0.0, 1.7161962033058426E9, 0.0, 2024-05-20 12:10:03.305
110.0, -1116.3802285647666, -187500.02235174447, -187500.02235174447, -187500.02235174447, -187500.02235174447, -187500.02235174447, -187500.02235174447, -187500.02235174447, 0.52, -0.256, 0.8300000000000001, 192.0, 0.0, 0.0, 0.0, 0.0, 0.0, 0.0, 0.0, 0.0, 0.0, 1.716196203310841E9, 0.0, 2024-05-20 12:10:03.310
111.0, -1097.0683213553812, -187500.02235174447, -187500.02235174447, -187500.02235174447, -187500.02235174447, -187500.02235174447, -187500.02235174447, -187500.02235174447, 0.52, -0.256, 0.8300000000000001, 192.0, 0.0, 0.0, 0.0, 0.0, 0.0, 0.0, 0.0, 0.0, 0.0, 1.7161962033148324E9, 0.0, 2024-05-20 12:10:03.314
112.0, -1074.7389286445296, -187500.02235174447, -187500.02235174447, -187500.02235174447, -187500.02235174447, -187500.02235174447, -187500.02235174447, -187500.02235174447, 0.52, -0.256, 0.8300000000000001, 192.0, 0.0, 0.0, 0.0, 0.0, 0.0, 0.0, 0.0, 0.0, 0.0, 1.7161962033188553E9, 0.0, 2024-05-20 12:10:03.318
113.0, -1076.1247368007585, -187500.02235174447, -187500.02235174447, -187500.02235174447, -187500.02235174447, -187500.02235174447, -187500.02235174447, -187500.02235174447, 0.52, -0.256, 0.8300000000000001, 192.0, 0.0, 0.0, 0.0, 0.0, 0.0, 0.0, 0.0, 0.0, 0.0, 1.7161962033219385E9, 0.0, 2024-05-20 12:10:03.321
114.0, -1106.1431296042358, -187500.02235174447, -187500.02235174447, -187500.02235174447, -187500.02235174447, -187500.02235174447, -187500.02235174447, -187500.02235174447, 0.518, -0.262, 0.8240000000000001, 192.0, 16.0, 48.0, 247.0, 208.0, 25.0, 192.0, 0.0, 0.0, 0.0, 1.7161962033258955E9, 0.0, 2024-05-20 12:10:03.325
115.0, -1119.241251855046, -187500.02235174447, -187500.02235174447, -187500.02235174447, -187500.02235174447, -187500.02235174447, -187500.02235174447, -187500.02235174447, 0.518, -0.262, 0.8240000000000001, 192.0, 0.0, 0.0, 0.0, 0.0, 0.0, 0.0, 0.0, 0.0, 0.0, 1.7161962033298728E9, 0.0, 2024-05-20 12:10:03.329
116.0, -1095.9283823881606, -187500.02235174447, -187500.02235174447, -187500.02235174447, -187500.02235174447, -187500.02235174447, -187500.02235174447, -187500.02235174447, 0.518, -0.262, 0.8240000000000001, 192.0, 0.0, 0.0, 0.0, 0.0, 0.0, 0.0, 0.0, 0.0, 0.0, 1.7161962033339236E9, 0.0, 2024-05-20 12:10:03.333
117.0, -1072.7496233880072, -187500.02235174447, -187500.02235174447, -187500.02235174447, -187500.02235174447, -187500.02235174447, -187500.02235174447, -187500.02235174447, 0.518, -0.262, 0.8240000000000001, 192.0, 0.0, 0.0, 0.0, 0.0, 0.0, 0.0, 0.0, 0.0, 0.0, 1.71619620333793E9, 0.0, 2024-05-20 12:10:03.337
118.0, -1076.0353298229372, -187500.02235174447, -187500.02235174447, -187500.02235174447, -187500.02235174447, -187500.02235174447, -187500.02235174447, -187500.02235174447, 0.518, -0.262, 0.8240000000000001, 192.0, 0.0, 0.0, 0.0, 0.0, 0.0, 0.0, 0.0, 0.0, 0.0, 1.7161962033429472E9, 0.0, 2024-05-20 12:10:03.342
119.0, -1103.0585888694036, -187500.02235174447, -187500.02235174447, -187500.02235174447, -187500.02235174447, -187500.02235174447, -187500.02235174447, -187500.02235174447, 0.518, -0.262, 0.8240000000000001, 192.0, 0.0, 0.0, 0.0, 0.0, 0.0, 0.0, 0.0, 0.0, 0.0, 1.7161962033469665E9, 0.0, 2024-05-20 12:10:03.346
120.0, -1117.4531122986214, -187500.02235174447, -187500.02235174447, -187500.02235174447, -187500.02235174447, -187500.02235174447, -187500.02235174447, -187500.02235174447, 0.518, -0.262, 0.8240000000000001, 192.0, 0.0, 0.0, 0.0, 0.0, 0.0, 0.0, 0.0, 0.0, 0.0, 1.716196203349985E9, 0.0, 2024-05-20 12:10:03.349
121.0, -1094.9896091210378, -187500.02235174447, -187500.02235174447, -187500.02235174447, -187500.02235174447, -187500.02235174447, -187500.02235174447, -187500.02235174447, 0.518, -0.262, 0.8240000000000001, 192.0, 0.0, 0.0, 0.0, 0.0, 0.0, 0.0, 0.0, 0.0, 0.0, 1.7161962033539977E9, 0.0, 2024-05-20 12:10:03.353
122.0, -1072.369643732267, -187500.02235174447, -187500.02235174447, -187500.02235174447, -187500.02235174447, -187500.02235174447, -187500.02235174447, -187500.02235174447, 0.518, -0.262, 0.8240000000000001, 192.0, 0.0, 0.0, 0.0, 0.0, 0.0, 0.0, 0.0, 0.0, 0.0, 1.7161962033580155E9, 0.0, 2024-05-20 12:10:03.358
123.0, -1073.5319344439429, -187500.02235174447, -187500.02235174447, -187500.02235174447, -187500.02235174447, -187500.02235174447, -187500.02235174447, -187500.02235174447, 0.518, -0.262, 0.8240000000000001, 192.0, 0.0, 0.0, 0.0, 0.0, 0.0, 0.0, 0.0, 0.0, 0.0, 1.7161962033620143E9, 0.0, 2024-05-20 12:10:03.362
124.0, -1103.1926993361353, -187500.02235174447, -187500.02235174447, -187500.02235174447, -187500.02235174447, -187500.02235174447, -187500.02235174447, -187500.02235174447, 0.526, -0.258, 0.834, 192.0, 16.0, 112.0, 247.0, 240.0, 26.0, 16.0, 0.0, 0.0, 0.0, 1.716196203366028E9, 0.0, 2024-05-20 12:10:03.366
125.0, -1117.073132642881, -187500.02235174447, -187500.02235174447, -187500.02235174447, -187500.02235174447, -187500.02235174447, -187500.02235174447, -187500.02235174447, 0.526, -0.258, 0.834, 192.0, 0.0, 0.0, 0.0, 0.0, 0.0, 0.0, 0.0, 0.0, 0.0, 1.7161962033700716E9, 0.0, 2024-05-20 12:10:03.370
126.0, -1098.1188533447807, -187500.02235174447, -187500.02235174447, -187500.02235174447, -187500.02235174447, -187500.02235174447, -187500.02235174447, -187500.02235174447, 0.526, -0.258, 0.834, 192.0, 0.0, 0.0, 0.0, 0.0, 0.0, 0.0, 0.0, 0.0, 0.0, 1.716196203375251E9, 0.0, 2024-05-20 12:10:03.375
127.0, -1075.3647774892781, -187500.02235174447, -187500.02235174447, -187500.02235174447, -187500.02235174447, -187500.02235174447, -187500.02235174447, -187500.02235174447, 0.526, -0.258, 0.834, 192.0, 0.0, 0.0, 0.0, 0.0, 0.0, 0.0, 0.0, 0.0, 0.0, 1.7161962033780818E9, 0.0, 2024-05-20 12:10:03.378
128.0, -1077.5999519348088, -187500.02235174447, -187500.02235174447, -187500.02235174447, -187500.02235174447, -187500.02235174447, -187500.02235174447, -187500.02235174447, 0.526, -0.258, 0.834, 192.0, 0.0, 0.0, 0.0, 0.0, 0.0, 0.0, 0.0, 0.0, 0.0, 1.716196203381181E9, 0.0, 2024-05-20 12:10:03.381
129.0, -1109.5629465058978, -187500.02235174447, -187500.02235174447, -187500.02235174447, -187500.02235174447, -187500.02235174447, -187500.02235174447, -187500.02235174447, 0.526, -0.258, 0.834, 192.0, 0.0, 0.0, 0.0, 0.0, 0.0, 0.0, 0.0, 0.0, 0.0, 1.716196203386212E9, 0.0, 2024-05-20 12:10:03.386
130.0, -1124.0021734240263, -187500.02235174447, -187500.02235174447, -187500.02235174447, -187500.02235174447, -187500.02235174447, -187500.02235174447, -187500.02235174447, 0.526, -0.258, 0.834, 192.0, 0.0, 0.0, 0.0, 0.0, 0.0, 0.0, 0.0, 0.0, 0.0, 1.71619620339011E9, 0.0, 2024-05-20 12:10:03.390
131.0, -1100.9351731461493, -187500.02235174447, -187500.02235174447, -187500.02235174447, -187500.02235174447, -187500.02235174447, -187500.02235174447, -187500.02235174447, 0.526, -0.258, 0.834, 192.0, 0.0, 0.0, 0.0, 0.0, 0.0, 0.0, 0.0, 0.0, 0.0, 1.7161962033941567E9, 0.0, 2024-05-20 12:10:03.394
132.0, -1085.2442485385238, -187500.02235174447, -187500.02235174447, -187500.02235174447, -187500.02235174447, -187500.02235174447, -187500.02235174447, -187500.02235174447, 0.526, -0.258, 0.834, 192.0, 0.0, 0.0, 0.0, 0.0, 0.0, 0.0, 0.0, 0.0, 0.0, 1.71619620340015E9, 0.0, 2024-05-20 12:10:03.400
133.0, -1093.045007353426, -187500.02235174447, -187500.02235174447, -187500.02235174447, -187500.02235174447, -187500.02235174447, -187500.02235174447, -187500.02235174447, 0.524, -0.256, 0.8320000000000001, 192.0, 16.0, 96.0, 248.0, 0.0, 26.0, 0.0, 0.0, 0.0, 0.0, 1.7161962034031768E9, 0.0, 2024-05-20 12:10:03.403
134.0, -1119.2189001105905, -187500.02235174447, -187500.02235174447, -187500.02235174447, -187500.02235174447, -187500.02235174447, -187500.02235174447, -187500.02235174447, 0.524, -0.256, 0.8320000000000001, 192.0, 0.0, 0.0, 0.0, 0.0, 0.0, 0.0, 0.0, 0.0, 0.0, 1.7161962034062304E9, 0.0, 2024-05-20 12:10:03.406
135.0, -1124.1809873796687, -187500.02235174447, -187500.02235174447, -187500.02235174447, -187500.02235174447, -187500.02235174447, -187500.02235174447, -187500.02235174447, 0.524, -0.256, 0.8320000000000001, 192.0, 0.0, 0.0, 0.0, 0.0, 0.0, 0.0, 0.0, 0.0, 0.0, 1.7161962034101615E9, 0.0, 2024-05-20 12:10:03.410
136.0, -1102.9244784026716, -187500.02235174447, -187500.02235174447, -187500.02235174447, -187500.02235174447, -187500.02235174447, -187500.02235174447, -187500.02235174447, 0.524, -0.256, 0.8320000000000001, 192.0, 0.0, 0.0, 0.0, 0.0, 0.0, 0.0, 0.0, 0.0, 0.0, 1.71619620341421E9, 0.0, 2024-05-20 12:10:03.414
137.0, -1084.1937165491245, -187500.02235174447, -187500.02235174447, -187500.02235174447, -187500.02235174447, -187500.02235174447, -187500.02235174447, -187500.02235174447, 0.524, -0.256, 0.8320000000000001, 192.0, 0.0, 0.0, 0.0, 0.0, 0.0, 0.0, 0.0, 0.0, 0.0, 1.7161962034183445E9, 0.0, 2024-05-20 12:10:03.418
138.0, -1083.2996467709122, -187500.02235174447, -187500.02235174447, -187500.02235174447, -187500.02235174447, -187500.02235174447, -187500.02235174447, -187500.02235174447, 0.524, -0.256, 0.8320000000000001, 192.0, 0.0, 0.0, 0.0, 0.0, 0.0, 0.0, 0.0, 0.0, 0.0, 1.7161962034222353E9, 0.0, 2024-05-20 12:10:03.422
139.0, -1112.915708174194, -187500.02235174447, -187500.02235174447, -187500.02235174447, -187500.02235174447, -187500.02235174447, -187500.02235174447, -187500.02235174447, 0.524, -0.256, 0.8320000000000001, 192.0, 0.0, 0.0, 0.0, 0.0, 0.0, 0.0, 0.0, 0.0, 0.0, 1.716196203426245E9, 0.0, 2024-05-20 12:10:03.426
140.0, -1126.7737897364843, -187500.02235174447, -187500.02235174447, -187500.02235174447, -187500.02235174447, -187500.02235174447, -187500.02235174447, -187500.02235174447, 0.524, -0.256, 0.8320000000000001, 192.0, 0.0, 0.0, 0.0, 0.0, 0.0, 0.0, 0.0, 0.0, 0.0, 1.716196203432279E9, 0.0, 2024-05-20 12:10:03.432
141.0, -1106.880737171261, -187500.02235174447, -187500.02235174447, -187500.02235174447, -187500.02235174447, -187500.02235174447, -187500.02235174447, -187500.02235174447, 0.524, -0.256, 0.8320000000000001, 192.0, 0.0, 0.0, 0.0, 0.0, 0.0, 0.0, 0.0, 0.0, 0.0, 1.7161962034353132E9, 0.0, 2024-05-20 12:10:03.435
142.0, -1079.8351263803395, -187500.02235174447, -187500.02235174447, -187500.02235174447, -187500.02235174447, -187500.02235174447, -187500.02235174447, -187500.02235174447, 0.524, -0.256, 0.8320000000000001, 192.0, 0.0, 0.0, 0.0, 0.0, 0.0, 0.0, 0.0, 0.0, 0.0, 1.716196203438428E9, 0.0, 2024-05-20 12:10:03.438
143.0, -1086.78651890594, -187500.02235174447, -187500.02235174447, -187500.02235174447, -187500.02235174447, -187500.02235174447, -187500.02235174447, -187500.02235174447, 0.526, -0.254, 0.834, 192.0, 16.0, 112.0, 248.0, 16.0, 26.0, 16.0, 0.0, 0.0, 0.0, 1.7161962034423292E9, 0.0, 2024-05-20 12:10:03.442
144.0, -1112.6251354962749, -187500.02235174447, -187500.02235174447, -187500.02235174447, -187500.02235174447, -187500.02235174447, -187500.02235174447, -187500.02235174447, 0.526, -0.254, 0.834, 192.0, 0.0, 0.0, 0.0, 0.0, 0.0, 0.0, 0.0, 0.0, 0.0, 1.7161962034464214E9, 0.0, 2024-05-20 12:10:03.446
145.0, -1132.3617258503111, -187500.02235174447, -187500.02235174447, -187500.02235174447, -187500.02235174447, -187500.02235174447, -187500.02235174447, -187500.02235174447, 0.526, -0.254, 0.834, 192.0, 0.0, 0.0, 0.0, 0.0, 0.0, 0.0, 0.0, 0.0, 0.0, 1.7161962034503365E9, 0.0, 2024-05-20 12:10:03.450
146.0, -1111.3734378067777, -187500.02235174447, -187500.02235174447, -187500.02235174447, -187500.02235174447, -187500.02235174447, -187500.02235174447, -187500.02235174447, 0.526, -0.254, 0.834, 192.0, 0.0, 0.0, 0.0, 0.0, 0.0, 0.0, 0.0, 0.0, 0.0, 1.716196203454356E9, 0.0, 2024-05-20 12:10:03.454
147.0, -1085.333655516345, -187500.02235174447, -187500.02235174447, -187500.02235174447, -187500.02235174447, -187500.02235174447, -187500.02235174447, -187500.02235174447, 0.526, -0.254, 0.834, 192.0, 0.0, 0.0, 0.0, 0.0, 0.0, 0.0, 0.0, 0.0, 0.0, 1.7161962034583733E9, 0.0, 2024-05-20 12:10:03.458
148.0, -1088.239382295535, -187500.02235174447, -187500.02235174447, -187500.02235174447, -187500.02235174447, -187500.02235174447, -187500.02235174447, -187500.02235174447, 0.526, -0.254, 0.834, 192.0, 0.0, 0.0, 0.0, 0.0, 0.0, 0.0, 0.0, 0.0, 0.0, 1.7161962034633908E9, 0.0, 2024-05-20 12:10:03.463
149.0, -1118.45894079911, -187500.02235174447, -187500.02235174447, -187500.02235174447, -187500.02235174447, -187500.02235174447, -187500.02235174447, -187500.02235174447, 0.526, -0.254, 0.834, 192.0, 0.0, 0.0, 0.0, 0.0, 0.0, 0.0, 0.0, 0.0, 0.0, 1.7161962034674308E9, 0.0, 2024-05-20 12:10:03.467
150.0, -1128.137246148258, -187500.02235174447, -187500.02235174447, -187500.02235174447, -187500.02235174447, -187500.02235174447, -187500.02235174447, -187500.02235174447, 0.526, -0.254, 0.834, 192.0, 0.0, 0.0, 0.0, 0.0, 0.0, 0.0, 0.0, 0.0, 0.0, 1.7161962034714804E9, 0.0, 2024-05-20 12:10:03.471
151.0, -1109.0935598723365, -187500.02235174447, -187500.02235174447, -187500.02235174447, -187500.02235174447, -187500.02235174447, -187500.02235174447, -187500.02235174447, 0.526, -0.254, 0.834, 192.0, 0.0, 0.0, 0.0, 0.0, 0.0, 0.0, 0.0, 0.0, 0.0, 1.71619620347442E9, 0.0, 2024-05-20 12:10:03.474
152.0, -1085.2666002829792, -187500.02235174447, -187500.02235174447, -187500.02235174447, -187500.02235174447, -187500.02235174447, -187500.02235174447, -187500.02235174447, 0.526, -0.254, 0.834, 192.0, 0.0, 0.0, 0.0, 0.0, 0.0, 0.0, 0.0, 0.0, 0.0, 1.7161962034784675E9, 0.0, 2024-05-20 12:10:03.478
153.0, -1090.854536396806, -187500.02235174447, -187500.02235174447, -187500.02235174447, -187500.02235174447, -187500.02235174447, -187500.02235174447, -187500.02235174447, 0.526, -0.242, 0.834, 192.0, 16.0, 112.0, 248.0, 112.0, 26.0, 16.0, 0.0, 0.0, 0.0, 1.716196203482436E9, 0.0, 2024-05-20 12:10:03.482
154.0, -1115.4414552976436, -187500.02235174447, -187500.02235174447, -187500.02235174447, -187500.02235174447, -187500.02235174447, -187500.02235174447, -187500.02235174447, 0.526, -0.242, 0.834, 192.0, 0.0, 0.0, 0.0, 0.0, 0.0, 0.0, 0.0, 0.0, 0.0, 1.716196203485473E9, 0.0, 2024-05-20 12:10:03.485
155.0, -1126.3491065918336, -187500.02235174447, -187500.02235174447, -187500.02235174447, -187500.02235174447, -187500.02235174447, -187500.02235174447, -187500.02235174447, 0.526, -0.242, 0.834, 192.0, 0.0, 0.0, 0.0, 0.0, 0.0, 0.0, 0.0, 0.0, 0.0, 1.7161962034894862E9, 0.0, 2024-05-20 12:10:03.489
156.0, -1103.2597545695014, -187500.02235174447, -187500.02235174447, -187500.02235174447, -187500.02235174447, -187500.02235174447, -187500.02235174447, -187500.02235174447, 0.526, -0.242, 0.834, 192.0, 0.0, 0.0, 0.0, 0.0, 0.0, 0.0, 0.0, 0.0, 0.0, 1.7161962034934971E9, 0.0, 2024-05-20 12:10:03.493
157.0, -1078.1587455461915, -187500.02235174447, -187500.02235174447, -187500.02235174447, -187500.02235174447, -187500.02235174447, -187500.02235174447, -187500.02235174447, 0.526, -0.242, 0.834, 192.0, 0.0, 0.0, 0.0, 0.0, 0.0, 0.0, 0.0, 0.0, 0.0, 1.7161962034975145E9, 0.0, 2024-05-20 12:10:03.497
158.0, -1084.014902593482, -187500.02235174447, -187500.02235174447, -187500.02235174447, -187500.02235174447, -187500.02235174447, -187500.02235174447, -187500.02235174447, 0.526, -0.242, 0.834, 192.0, 0.0, 0.0, 0.0, 0.0, 0.0, 0.0, 0.0, 0.0, 0.0, 1.716196203502571E9, 0.0, 2024-05-20 12:10:03.502
159.0, -1110.881699428761, -187500.02235174447, -187500.02235174447, -187500.02235174447, -187500.02235174447, -187500.02235174447, -187500.02235174447, -187500.02235174447, 0.526, -0.242, 0.834, 192.0, 0.0, 0.0, 0.0, 0.0, 0.0, 0.0, 0.0, 0.0, 0.0, 1.7161962035065362E9, 0.0, 2024-05-20 12:10:03.506
160.0, -1127.1314176477692, -187500.02235174447, -187500.02235174447, -187500.02235174447, -187500.02235174447, -187500.02235174447, -187500.02235174447, -187500.02235174447, 0.526, -0.242, 0.834, 192.0, 0.0, 0.0, 0.0, 0.0, 0.0, 0.0, 0.0, 0.0, 0.0, 1.7161962035105548E9, 0.0, 2024-05-20 12:10:03.510
161.0, -1109.7417604615403, -187500.02235174447, -187500.02235174447, -187500.02235174447, -187500.02235174447, -187500.02235174447, -187500.02235174447, -187500.02235174447, 0.526, -0.242, 0.834, 192.0, 0.0, 0.0, 0.0, 0.0, 0.0, 0.0, 0.0, 0.0, 0.0, 1.716196203513599E9, 0.0, 2024-05-20 12:10:03.513
162.0, -1086.2277252945573, -187500.02235174447, -187500.02235174447, -187500.02235174447, -187500.02235174447, -187500.02235174447, -187500.02235174447, -187500.02235174447, 0.526, -0.242, 0.834, 192.0, 0.0, 0.0, 0.0, 0.0, 0.0, 0.0, 0.0, 0.0, 0.0, 1.7161962035175853E9, 0.0, 2024-05-20 12:10:03.517
163.0, -1085.4901177275322, -187500.02235174447, -187500.02235174447, -187500.02235174447, -187500.02235174447, -187500.02235174447, -187500.02235174447, -187500.02235174447, 0.52, -0.246, 0.8320000000000001, 192.0, 16.0, 64.0, 248.0, 80.0, 26.0, 0.0, 0.0, 0.0, 0.0, 1.7161962035215924E9, 0.0, 2024-05-20 12:10:03.521
164.0, -1118.6601064992078, -187500.02235174447, -187500.02235174447, -187500.02235174447, -187500.02235174447, -187500.02235174447, -187500.02235174447, -187500.02235174447, 0.52, -0.246, 0.8320000000000001, 192.0, 0.0, 0.0, 0.0, 0.0, 0.0, 0.0, 0.0, 0.0, 0.0, 1.7161962035256197E9, 0.0, 2024-05-20 12:10:03.525
165.0, -1132.8087607394173, -187500.02235174447, -187500.02235174447, -187500.02235174447, -187500.02235174447, -187500.02235174447, -187500.02235174447, -187500.02235174447, 0.52, -0.246, 0.8320000000000001, 192.0, 0.0, 0.0, 0.0, 0.0, 0.0, 0.0, 0.0, 0.0, 0.0, 1.7161962035296338E9, 0.0, 2024-05-20 12:10:03.529
166.0, -1111.5075482735097, -187500.02235174447, -187500.02235174447, -187500.02235174447, -187500.02235174447, -187500.02235174447, -187500.02235174447, -187500.02235174447, 0.52, -0.246, 0.8320000000000001, 192.0, 0.0, 0.0, 0.0, 0.0, 0.0, 0.0, 0.0, 0.0, 0.0, 1.7161962035346456E9, 0.0, 2024-05-20 12:10:03.534
167.0, -1085.7359869165405, -187500.02235174447, -187500.02235174447, -187500.02235174447, -187500.02235174447, -187500.02235174447, -187500.02235174447, -187500.02235174447, 0.52, -0.246, 0.8320000000000001, 192.0, 0.0, 0.0, 0.0, 0.0, 0.0, 0.0, 0.0, 0.0, 0.0, 1.7161962035386672E9, 0.0, 2024-05-20 12:10:03.538
168.0, -1091.212164308091, -187500.02235174447, -187500.02235174447, -187500.02235174447, -187500.02235174447, -187500.02235174447, -187500.02235174447, -187500.02235174447, 0.52, -0.246, 0.8320000000000001, 192.0, 0.0, 0.0, 0.0, 0.0, 0.0, 0.0, 0.0, 0.0, 0.0, 1.7161962035426428E9, 0.0, 2024-05-20 12:10:03.542
169.0, -1118.8165687103951, -187500.02235174447, -187500.02235174447, -187500.02235174447, -187500.02235174447, -187500.02235174447, -187500.02235174447, -187500.02235174447, 0.52, -0.246, 0.8320000000000001, 192.0, 0.0, 0.0, 0.0, 0.0, 0.0, 0.0, 0.0, 0.0, 0.0, 1.7161962035456924E9, 0.0, 2024-05-20 12:10:03.545
170.0, -1134.4180863401994, -187500.02235174447, -187500.02235174447, -187500.02235174447, -187500.02235174447, -187500.02235174447, -187500.02235174447, -187500.02235174447, 0.52, -0.246, 0.8320000000000001, 192.0, 0.0, 0.0, 0.0, 0.0, 0.0, 0.0, 0.0, 0.0, 0.0, 1.7161962035497286E9, 0.0, 2024-05-20 12:10:03.549
171.0, -1109.1159116167917, -187500.02235174447, -187500.02235174447, -187500.02235174447, -187500.02235174447, -187500.02235174447, -187500.02235174447, -187500.02235174447, 0.52, -0.246, 0.8320000000000001, 192.0, 0.0, 0.0, 0.0, 0.0, 0.0, 0.0, 0.0, 0.0, 0.0, 1.7161962035537252E9, 0.0, 2024-05-20 12:10:03.553
172.0, -1086.8088706503954, -187500.02235174447, -187500.02235174447, -187500.02235174447, -187500.02235174447, -187500.02235174447, -187500.02235174447, -187500.02235174447, 0.52, -0.246, 0.8320000000000001, 192.0, 0.0, 0.0, 0.0, 0.0, 0.0, 0.0, 0.0, 0.0, 0.0, 1.7161962035577407E9, 0.0, 2024-05-20 12:10:03.557
173.0, -1088.3734927622668, -187500.02235174447, -187500.02235174447, -187500.02235174447, -187500.02235174447, -187500.02235174447, -187500.02235174447, -187500.02235174447, 0.518, -0.252, 0.836, 192.0, 16.0, 48.0, 248.0, 32.0, 26.0, 32.0, 0.0, 0.0, 0.0, 1.7161962035627284E9, 0.0, 2024-05-20 12:10:03.562
174.0, -1112.714542474096, -187500.02235174447, -187500.02235174447, -187500.02235174447, -187500.02235174447, -187500.02235174447, -187500.02235174447, -187500.02235174447, 0.518, -0.252, 0.836, 192.0, 0.0, 0.0, 0.0, 0.0, 0.0, 0.0, 0.0, 0.0, 0.0, 1.7161962035667777E9, 0.0, 2024-05-20 12:10:03.566
175.0, -1127.5784525368754, -187500.02235174447, -187500.02235174447, -187500.02235174447, -187500.02235174447, -187500.02235174447, -187500.02235174447, -187500.02235174447, 0.518, -0.252, 0.836, 192.0, 0.0, 0.0, 0.0, 0.0, 0.0, 0.0, 0.0, 0.0, 0.0, 1.7161962035697968E9, 0.0, 2024-05-20 12:10:03.569
176.0, -1111.3734378067777, -187500.02235174447, -187500.02235174447, -187500.02235174447, -187500.02235174447, -187500.02235174447, -187500.02235174447, -187500.02235174447, 0.518, -0.252, 0.836, 192.0, 0.0, 0.0, 0.0, 0.0, 0.0, 0.0, 0.0, 0.0, 0.0, 1.716196203573794E9, 0.0, 2024-05-20 12:10:03.573
177.0, -1084.372530504767, -187500.02235174447, -187500.02235174447, -187500.02235174447, -187500.02235174447, -187500.02235174447, -187500.02235174447, -187500.02235174447, 0.518, -0.252, 0.836, 192.0, 0.0, 0.0, 0.0, 0.0, 0.0, 0.0, 0.0, 0.0, 0.0, 1.7161962035777977E9, 0.0, 2024-05-20 12:10:03.577
178.0, -1087.0547398394037, -187500.02235174447, -187500.02235174447, -187500.02235174447, -187500.02235174447, -187500.02235174447, -187500.02235174447, -187500.02235174447, 0.518, -0.252, 0.836, 192.0, 0.0, 0.0, 0.0, 0.0, 0.0, 0.0, 0.0, 0.0, 0.0, 1.716196203581824E9, 0.0, 2024-05-20 12:10:03.581
179.0, -1115.9555454201156, -187500.02235174447, -187500.02235174447, -187500.02235174447, -187500.02235174447, -187500.02235174447, -187500.02235174447, -187500.02235174447, 0.518, -0.252, 0.836, 192.0, 0.0, 0.0, 0.0, 0.0, 0.0, 0.0, 0.0, 0.0, 0.0, 1.7161962035858257E9, 0.0, 2024-05-20 12:10:03.585
180.0, -1132.1605601502133, -187500.02235174447, -187500.02235174447, -187500.02235174447, -187500.02235174447, -187500.02235174447, -187500.02235174447, -187500.02235174447, 0.518, -0.252, 0.836, 192.0, 0.0, 0.0, 0.0, 0.0, 0.0, 0.0, 0.0, 0.0, 0.0, 1.716196203589842E9, 0.0, 2024-05-20 12:10:03.589
181.0, -1117.6095745098085, -187500.02235174447, -187500.02235174447, -187500.02235174447, -187500.02235174447, -187500.02235174447, -187500.02235174447, -187500.02235174447, 0.518, -0.252, 0.836, 192.0, 0.0, 0.0, 0.0, 0.0, 0.0, 0.0, 0.0, 0.0, 0.0, 1.7161962035949087E9, 0.0, 2024-05-20 12:10:03.594
182.0, -1094.8107951653953, -187500.02235174447, -187500.02235174447, -187500.02235174447, -187500.02235174447, -187500.02235174447, -187500.02235174447, -187500.02235174447, 0.518, -0.246, 0.84, 192.0, 16.0, 48.0, 248.0, 80.0, 26.0, 64.0, 0.0, 0.0, 0.0, 1.7161962035979369E9, 0.0, 2024-05-20 12:10:03.597
183.0, -1095.3248852878673, -187500.02235174447, -187500.02235174447, -187500.02235174447, -187500.02235174447, -187500.02235174447, -187500.02235174447, -187500.02235174447, 0.518, -0.246, 0.84, 192.0, 0.0, 0.0, 0.0, 0.0, 0.0, 0.0, 0.0, 0.0, 0.0, 1.716196203601915E9, 0.0, 2024-05-20 12:10:03.601
184.0, -1122.594013523342, -187500.02235174447, -187500.02235174447, -187500.02235174447, -187500.02235174447, -187500.02235174447, -187500.02235174447, -187500.02235174447, 0.518, -0.246, 0.84, 192.0, 0.0, 0.0, 0.0, 0.0, 0.0, 0.0, 0.0, 0.0, 0.0, 1.7161962036059356E9, 0.0, 2024-05-20 12:10:03.605
185.0, -1135.334507862867, -187500.02235174447, -187500.02235174447, -187500.02235174447, -187500.02235174447, -187500.02235174447, -187500.02235174447, -187500.02235174447, 0.518, -0.246, 0.84, 192.0, 0.0, 0.0, 0.0, 0.0, 0.0, 0.0, 0.0, 0.0, 0.0, 1.716196203609965E9, 0.0, 2024-05-20 12:10:03.609
186.0, -1115.620269253286, -187500.02235174447, -187500.02235174447, -187500.02235174447, -187500.02235174447, -187500.02235174447, -187500.02235174447, -187500.02235174447, 0.518, -0.246, 0.84, 192.0, 0.0, 0.0, 0.0, 0.0, 0.0, 0.0, 0.0, 0.0, 0.0, 1.7161962036140027E9, 0.0, 2024-05-20 12:10:03.614
187.0, -1091.4580334970992, -187500.02235174447, -187500.02235174447, -187500.02235174447, -187500.02235174447, -187500.02235174447, -187500.02235174447, -187500.02235174447, 0.518, -0.246, 0.84, 192.0, 0.0, 0.0, 0.0, 0.0, 0.0, 0.0, 0.0, 0.0, 0.0, 1.7161962036179545E9, 0.0, 2024-05-20 12:10:03.617
188.0, -1090.1169288297808, -187500.02235174447, -187500.02235174447, -187500.02235174447, -187500.02235174447, -187500.02235174447, -187500.02235174447, -187500.02235174447, 0.518, -0.246, 0.84, 192.0, 0.0, 0.0, 0.0, 0.0, 0.0, 0.0, 0.0, 0.0, 0.0, 1.716196203623018E9, 0.0, 2024-05-20 12:10:03.623
189.0, -1113.876833185772, -187500.02235174447, -187500.02235174447, -187500.02235174447, -187500.02235174447, -187500.02235174447, -187500.02235174447, -187500.02235174447, 0.518, -0.246, 0.84, 192.0, 0.0, 0.0, 0.0, 0.0, 0.0, 0.0, 0.0, 0.0, 0.0, 1.7161962036270132E9, 0.0, 2024-05-20 12:10:03.627
190.0, -1134.038106684459, -187500.02235174447, -187500.02235174447, -187500.02235174447, -187500.02235174447, -187500.02235174447, -187500.02235174447, -187500.02235174447, 0.518, -0.246, 0.84, 192.0, 0.0, 0.0, 0.0, 0.0, 0.0, 0.0, 0.0, 0.0, 0.0, 1.71619620363E9, 0.0, 2024-05-20 12:10:03.630
191.0, -1120.4258943111772, -187500.02235174447, -187500.02235174447, -187500.02235174447, -187500.02235174447, -187500.02235174447, -187500.02235174447, -187500.02235174447, 0.518, -0.246, 0.84, 192.0, 0.0, 0.0, 0.0, 0.0, 0.0, 0.0, 0.0, 0.0, 0.0, 1.716196203634018E9, 0.0, 2024-05-20 12:10:03.634
192.0, -1095.2354783100461, -187500.02235174447, -187500.02235174447, -187500.02235174447, -187500.02235174447, -187500.02235174447, -187500.02235174447, -187500.02235174447, 0.52, -0.248, 0.834, 192.0, 16.0, 64.0, 248.0, 64.0, 26.0, 16.0, 0.0, 0.0, 0.0, 1.7161962036380172E9, 0.0, 2024-05-20 12:10:03.638
193.0, -1095.3695887767778, -187500.02235174447, -187500.02235174447, -187500.02235174447, -187500.02235174447, -187500.02235174447, -187500.02235174447, -187500.02235174447, 0.52, -0.248, 0.834, 192.0, 0.0, 0.0, 0.0, 0.0, 0.0, 0.0, 0.0, 0.0, 0.0, 1.7161962036420662E9, 0.0, 2024-05-20 12:10:03.642
194.0, -1120.1800251221687, -187500.02235174447, -187500.02235174447, -187500.02235174447, -187500.02235174447, -187500.02235174447, -187500.02235174447, -187500.02235174447, 0.52, -0.248, 0.834, 192.0, 0.0, 0.0, 0.0, 0.0, 0.0, 0.0, 0.0, 0.0, 0.0, 1.7161962036460717E9, 0.0, 2024-05-20 12:10:03.646
195.0, -1132.7417055060514, -187500.02235174447, -187500.02235174447, -187500.02235174447, -187500.02235174447, -187500.02235174447, -187500.02235174447, -187500.02235174447, 0.52, -0.248, 0.834, 192.0, 0.0, 0.0, 0.0, 0.0, 0.0, 0.0, 0.0, 0.0, 0.0, 1.7161962036491344E9, 0.0, 2024-05-20 12:10:03.649
196.0, -1120.850577455828, -187500.02235174447, -187500.02235174447, -187500.02235174447, -187500.02235174447, -187500.02235174447, -187500.02235174447, -187500.02235174447, 0.52, -0.248, 0.834, 192.0, 0.0, 0.0, 0.0, 0.0, 0.0, 0.0, 0.0, 0.0, 0.0, 1.716196203653146E9, 0.0, 2024-05-20 12:10:03.653
197.0, -1095.0343126099483, -187500.02235174447, -187500.02235174447, -187500.02235174447, -187500.02235174447, -187500.02235174447, -187500.02235174447, -187500.02235174447, 0.52, -0.248, 0.834, 192.0, 0.0, 0.0, 0.0, 0.0, 0.0, 0.0, 0.0, 0.0, 0.0, 1.716196203657168E9, 0.0, 2024-05-20 12:10:03.657
198.0, -1096.8001004219175, -187500.02235174447, -187500.02235174447, -187500.02235174447, -187500.02235174447, -187500.02235174447, -187500.02235174447, -187500.02235174447, 0.52, -0.248, 0.834, 192.0, 0.0, 0.0, 0.0, 0.0, 0.0, 0.0, 0.0, 0.0, 0.0, 1.7161962036611524E9, 0.0, 2024-05-20 12:10:03.661
199.0, -1119.5765280218754, -187500.02235174447, -187500.02235174447, -187500.02235174447, -187500.02235174447, -187500.02235174447, -187500.02235174447, -187500.02235174447, 0.52, -0.248, 0.834, 192.0, 0.0, 0.0, 0.0, 0.0, 0.0, 0.0, 0.0, 0.0, 0.0, 1.7161962036661696E9, 0.0, 2024-05-20 12:10:03.666
200.0, -1137.5473305639423, -187500.02235174447, -187500.02235174447, -187500.02235174447, -187500.02235174447, -187500.02235174447, -187500.02235174447, -187500.02235174447, 0.52, -0.248, 0.834, 192.0, 0.0, 0.0, 0.0, 0.0, 0.0, 0.0, 0.0, 0.0, 0.0, 1.7161962036701603E9, 0.0, 2024-05-20 12:10:03.670
201.0, -1115.7320279755627, -187500.02235174447, -187500.02235174447, -187500.02235174447, -187500.02235174447, -187500.02235174447, -187500.02235174447, -187500.02235174447, 0.52, -0.248, 0.834, 192.0, 0.0, 0.0, 0.0, 0.0, 0.0, 0.0, 0.0, 0.0, 0.0, 1.7161962036741748E9, 0.0, 2024-05-20 12:10:03.674
202.0, -1100.622248723775, -187500.02235174447, -187500.02235174447, -187500.02235174447, -187500.02235174447, -187500.02235174447, -187500.02235174447, -187500.02235174447, 0.518, -0.252, 0.834, 192.0, 16.0, 48.0, 248.0, 32.0, 26.0, 16.0, 0.0, 0.0, 0.0, 1.7161962036781924E9, 0.0, 2024-05-20 12:10:03.678
203.0, -1101.2480975685237, -187500.02235174447, -187500.02235174447, -187500.02235174447, -187500.02235174447, -187500.02235174447, -187500.02235174447, -187500.02235174447, 0.518, -0.252, 0.834, 192.0, 0.0, 0.0, 0.0, 0.0, 0.0, 0.0, 0.0, 0.0, 0.0, 1.716196203682182E9, 0.0, 2024-05-20 12:10:03.682
204.0, -1131.6464700277413, -187500.02235174447, -187500.02235174447, -187500.02235174447, -187500.02235174447, -187500.02235174447, -187500.02235174447, -187500.02235174447, 0.518, -0.252, 0.834, 192.0, 0.0, 0.0, 0.0, 0.0, 0.0, 0.0, 0.0, 0.0, 0.0, 1.7161962036852314E9, 0.0, 2024-05-20 12:10:03.685
205.0, -1144.3422608783558, -187500.02235174447, -187500.02235174447, -187500.02235174447, -187500.02235174447, -187500.02235174447, -187500.02235174447, -187500.02235174447, 0.518, -0.252, 0.834, 192.0, 0.0, 0.0, 0.0, 0.0, 0.0, 0.0, 0.0, 0.0, 0.0, 1.7161962036892793E9, 0.0, 2024-05-20 12:10:03.689
206.0, -1122.45990305661, -187500.02235174447, -187500.02235174447, -187500.02235174447, -187500.02235174447, -187500.02235174447, -187500.02235174447, -187500.02235174447, 0.518, -0.252, 0.834, 192.0, 0.0, 0.0, 0.0, 0.0, 0.0, 0.0, 0.0, 0.0, 0.0, 1.7161962036942265E9, 0.0, 2024-05-20 12:10:03.694
207.0, -1102.0304086244594, -187500.02235174447, -187500.02235174447, -187500.02235174447, -187500.02235174447, -187500.02235174447, -187500.02235174447, -187500.02235174447, 0.518, -0.252, 0.834, 192.0, 0.0, 0.0, 0.0, 0.0, 0.0, 0.0, 0.0, 0.0, 0.0, 1.7161962036982448E9, 0.0, 2024-05-20 12:10:03.698
208.0, -1098.7670539339847, -187500.02235174447, -187500.02235174447, -187500.02235174447, -187500.02235174447, -187500.02235174447, -187500.02235174447, -187500.02235174447, 0.518, -0.252, 0.834, 192.0, 0.0, 0.0, 0.0, 0.0, 0.0, 0.0, 0.0, 0.0, 0.0, 1.7161962037022796E9, 0.0, 2024-05-20 12:10:03.702
209.0, -1118.3918855657441, -187500.02235174447, -187500.02235174447, -187500.02235174447, -187500.02235174447, -187500.02235174447, -187500.02235174447, -187500.02235174447, 0.518, -0.252, 0.834, 192.0, 0.0, 0.0, 0.0, 0.0, 0.0, 0.0, 0.0, 0.0, 0.0, 1.7161962037063246E9, 0.0, 2024-05-20 12:10:03.706
210.0, -1126.885548458761, -187500.02235174447, -187500.02235174447, -187500.02235174447, -187500.02235174447, -187500.02235174447, -187500.02235174447, -187500.02235174447, 0.518, -0.252, 0.834, 192.0, 0.0, 0.0, 0.0, 0.0, 0.0, 0.0, 0.0, 0.0, 0.0, 1.716196203710334E9, 0.0, 2024-05-20 12:10:03.710
211.0, -1117.0060774095152, -187500.02235174447, -187500.02235174447, -187500.02235174447, -187500.02235174447, -187500.02235174447, -187500.02235174447, -187500.02235174447, 0.518, -0.252, 0.834, 192.0, 0.0, 0.0, 0.0, 0.0, 0.0, 0.0, 0.0, 0.0, 0.0, 1.7161962037133405E9, 0.0, 2024-05-20 12:10:03.713
212.0, -1099.3258475453672, -187500.02235174447, -187500.02235174447, -187500.02235174447, -187500.02235174447, -187500.02235174447, -187500.02235174447, -187500.02235174447, 0.516, -0.252, 0.8320000000000001, 192.0, 16.0, 32.0, 248.0, 32.0, 26.0, 0.0, 0.0, 0.0, 0.0, 1.7161962037173293E9, 0.0, 2024-05-20 12:10:03.717
213.0, -1106.3889987932444, -187500.02235174447, -187500.02235174447, -187500.02235174447, -187500.02235174447, -187500.02235174447, -187500.02235174447, -187500.02235174447, 0.516, -0.252, 0.8320000000000001, 192.0, 0.0, 0.0, 0.0, 0.0, 0.0, 0.0, 0.0, 0.0, 0.0, 1.7161962037233524E9, 0.0, 2024-05-20 12:10:03.723
214.0, -1123.0186966679928, -187500.02235174447, -187500.02235174447, -187500.02235174447, -187500.02235174447, -187500.02235174447, -187500.02235174447, -187500.02235174447, 0.516, -0.252, 0.8320000000000001, 192.0, 0.0, 0.0, 0.0, 0.0, 0.0, 0.0, 0.0, 0.0, 0.0, 1.71619620372636E9, 0.0, 2024-05-20 12:10:03.726
215.0, -1132.1605601502133, -187500.02235174447, -187500.02235174447, -187500.02235174447, -187500.02235174447, -187500.02235174447, -187500.02235174447, -187500.02235174447, 0.516, -0.252, 0.8320000000000001, 192.0, 0.0, 0.0, 0.0, 0.0, 0.0, 0.0, 0.0, 0.0, 0.0, 1.7161962037304316E9, 0.0, 2024-05-20 12:10:03.730
216.0, -1119.2189001105905, -187500.02235174447, -187500.02235174447, -187500.02235174447, -187500.02235174447, -187500.02235174447, -187500.02235174447, -187500.02235174447, 0.516, -0.252, 0.8320000000000001, 192.0, 0.0, 0.0, 0.0, 0.0, 0.0, 0.0, 0.0, 0.0, 0.0, 1.7161962037334187E9, 0.0, 2024-05-20 12:10:03.733
217.0, -1097.560059733398, -187500.02235174447, -187500.02235174447, -187500.02235174447, -187500.02235174447, -187500.02235174447, -187500.02235174447, -187500.02235174447, 0.516, -0.252, 0.8320000000000001, 192.0, 0.0, 0.0, 0.0, 0.0, 0.0, 0.0, 0.0, 0.0, 0.0, 1.7161962037373836E9, 0.0, 2024-05-20 12:10:03.737
218.0, -1101.4045597797108, -187500.02235174447, -187500.02235174447, -187500.02235174447, -187500.02235174447, -187500.02235174447, -187500.02235174447, -187500.02235174447, 0.516, -0.252, 0.8320000000000001, 192.0, 0.0, 0.0, 0.0, 0.0, 0.0, 0.0, 0.0, 0.0, 0.0, 1.7161962037414627E9, 0.0, 2024-05-20 12:10:03.741
219.0, -1131.780580494473, -187500.02235174447, -187500.02235174447, -187500.02235174447, -187500.02235174447, -187500.02235174447, -187500.02235174447, -187500.02235174447, 0.516, -0.252, 0.8320000000000001, 192.0, 0.0, 0.0, 0.0, 0.0, 0.0, 0.0, 0.0, 0.0, 0.0, 1.716196203745483E9, 0.0, 2024-05-20 12:10:03.745
220.0, -1142.4200108551993, -187500.02235174447, -187500.02235174447, -187500.02235174447, -187500.02235174447, -187500.02235174447, -187500.02235174447, -187500.02235174447, 0.516, -0.252, 0.8320000000000001, 192.0, 0.0, 0.0, 0.0, 0.0, 0.0, 0.0, 0.0, 0.0, 0.0, 1.716196203749461E9, 0.0, 2024-05-20 12:10:03.749
221.0, -1120.7611704780068, -187500.02235174447, -187500.02235174447, -187500.02235174447, -187500.02235174447, -187500.02235174447, -187500.02235174447, -187500.02235174447, 0.516, -0.248, 0.8260000000000001, 192.0, 16.0, 32.0, 248.0, 64.0, 25.0, 208.0, 0.0, 0.0, 0.0, 1.7161962037535002E9, 0.0, 2024-05-20 12:10:03.753
222.0, -1103.304458058412, -187500.02235174447, -187500.02235174447, -187500.02235174447, -187500.02235174447, -187500.02235174447, -187500.02235174447, -187500.02235174447, 0.516, -0.248, 0.8260000000000001, 192.0, 0.0, 0.0, 0.0, 0.0, 0.0, 0.0, 0.0, 0.0, 0.0, 1.7161962037584612E9, 0.0, 2024-05-20 12:10:03.758
223.0, -1099.3929027787333, -187500.02235174447, -187500.02235174447, -187500.02235174447, -187500.02235174447, -187500.02235174447, -187500.02235174447, -187500.02235174447, 0.516, -0.248, 0.8260000000000001, 192.0, 0.0, 0.0, 0.0, 0.0, 0.0, 0.0, 0.0, 0.0, 0.0, 1.716196203761524E9, 0.0, 2024-05-20 12:10:03.761
224.0, -1128.4725223150876, -187500.02235174447, -187500.02235174447, -187500.02235174447, -187500.02235174447, -187500.02235174447, -187500.02235174447, -187500.02235174447, 0.516, -0.248, 0.8260000000000001, 192.0, 0.0, 0.0, 0.0, 0.0, 0.0, 0.0, 0.0, 0.0, 0.0, 1.7161962037655249E9, 0.0, 2024-05-20 12:10:03.765
225.0, -1143.135266677769, -187500.02235174447, -187500.02235174447, -187500.02235174447, -187500.02235174447, -187500.02235174447, -187500.02235174447, -187500.02235174447, 0.516, -0.248, 0.8260000000000001, 192.0, 0.0, 0.0, 0.0, 0.0, 0.0, 0.0, 0.0, 0.0, 0.0, 1.7161962037695224E9, 0.0, 2024-05-20 12:10:03.769
226.0, -1124.3821530797666, -187500.02235174447, -187500.02235174447, -187500.02235174447, -187500.02235174447, -187500.02235174447, -187500.02235174447, -187500.02235174447, 0.516, -0.248, 0.8260000000000001, 192.0, 0.0, 0.0, 0.0, 0.0, 0.0, 0.0, 0.0, 0.0, 0.0, 1.7161962037735617E9, 0.0, 2024-05-20 12:10:03.773
227.0, -1109.205318594613, -187500.02235174447, -187500.02235174447, -187500.02235174447, -187500.02235174447, -187500.02235174447, -187500.02235174447, -187500.02235174447, 0.516, -0.248, 0.8260000000000001, 192.0, 0.0, 0.0, 0.0, 0.0, 0.0, 0.0, 0.0, 0.0, 0.0, 1.716196203777583E9, 0.0, 2024-05-20 12:10:03.777
228.0, -1088.462899740088, -187500.02235174447, -187500.02235174447, -187500.02235174447, -187500.02235174447, -187500.02235174447, -187500.02235174447, -187500.02235174447, 0.516, -0.248, 0.8260000000000001, 192.0, 0.0, 0.0, 0.0, 0.0, 0.0, 0.0, 0.0, 0.0, 0.0, 1.716196203781588E9, 0.0, 2024-05-20 12:10:03.781
229.0, -1055.047041779404, -187500.02235174447, -187500.02235174447, -187500.02235174447, -187500.02235174447, -187500.02235174447, -187500.02235174447, -187500.02235174447, 0.516, -0.248, 0.8260000000000001, 192.0, 0.0, 0.0, 0.0, 0.0, 0.0, 0.0, 0.0, 0.0, 0.0, 1.7161962037866273E9, 0.0, 2024-05-20 12:10:03.786
230.0, -1091.1898125636355, -187500.02235174447, -187500.02235174447, -187500.02235174447, -187500.02235174447, -187500.02235174447, -187500.02235174447, -187500.02235174447, 0.516, -0.248, 0.8260000000000001, 192.0, 0.0, 0.0, 0.0, 0.0, 0.0, 0.0, 0.0, 0.0, 0.0, 1.716196203789637E9, 0.0, 2024-05-20 12:10:03.789
231.0, -1172.9971972700594, -187500.02235174447, -187500.02235174447, -187500.02235174447, -187500.02235174447, -187500.02235174447, -187500.02235174447, -187500.02235174447, 0.514, -0.248, 0.8320000000000001, 192.0, 16.0, 16.0, 248.0, 64.0, 26.0, 0.0, 0.0, 0.0, 0.0, 1.7161962037936227E9, 0.0, 2024-05-20 12:10:03.793
232.0, -1125.7903129804508, -187500.02235174447, -187500.02235174447, -187500.02235174447, -187500.02235174447, -187500.02235174447, -187500.02235174447, -187500.02235174447, 0.514, -0.248, 0.8320000000000001, 192.0, 0.0, 0.0, 0.0, 0.0, 0.0, 0.0, 0.0, 0.0, 0.0, 1.716196203797662E9, 0.0, 2024-05-20 12:10:03.797
233.0, -1113.5862605078532, -187500.02235174447, -187500.02235174447, -187500.02235174447, -187500.02235174447, -187500.02235174447, -187500.02235174447, -187500.02235174447, 0.514, -0.248, 0.8320000000000001, 192.0, 0.0, 0.0, 0.0, 0.0, 0.0, 0.0, 0.0, 0.0, 0.0, 1.716196203801654E9, 0.0, 2024-05-20 12:10:03.801
234.0, -1146.6444905572523, -187500.02235174447, -187500.02235174447, -187500.02235174447, -187500.02235174447, -187500.02235174447, -187500.02235174447, -187500.02235174447, 0.514, -0.248, 0.8320000000000001, 192.0, 0.0, 0.0, 0.0, 0.0, 0.0, 0.0, 0.0, 0.0, 0.0, 1.7161962038056653E9, 0.0, 2024-05-20 12:10:03.805
235.0, -1144.2305021560792, -187500.02235174447, -187500.02235174447, -187500.02235174447, -187500.02235174447, -187500.02235174447, -187500.02235174447, -187500.02235174447, 0.514, -0.248, 0.8320000000000001, 192.0, 0.0, 0.0, 0.0, 0.0, 0.0, 0.0, 0.0, 0.0, 0.0, 1.7161962038096838E9, 0.0, 2024-05-20 12:10:03.809
236.0, -1131.0653246719032, -187500.02235174447, -187500.02235174447, -187500.02235174447, -187500.02235174447, -187500.02235174447, -187500.02235174447, -187500.02235174447, 0.514, -0.248, 0.8320000000000001, 192.0, 0.0, 0.0, 0.0, 0.0, 0.0, 0.0, 0.0, 0.0, 0.0, 1.716196203813702E9, 0.0, 2024-05-20 12:10:03.813
237.0, -1122.973993179082, -187500.02235174447, -187500.02235174447, -187500.02235174447, -187500.02235174447, -187500.02235174447, -187500.02235174447, -187500.02235174447, 0.514, -0.248, 0.8320000000000001, 192.0, 0.0, 0.0, 0.0, 0.0, 0.0, 0.0, 0.0, 0.0, 0.0, 1.716196203816681E9, 0.0, 2024-05-20 12:10:03.816
238.0, -1119.4871210440542, -187500.02235174447, -187500.02235174447, -187500.02235174447, -187500.02235174447, -187500.02235174447, -187500.02235174447, -187500.02235174447, 0.514, -0.248, 0.8320000000000001, 192.0, 0.0, 0.0, 0.0, 0.0, 0.0, 0.0, 0.0, 0.0, 0.0, 1.71619620382073E9, 0.0, 2024-05-20 12:10:03.820
239.0, -1139.201359653635, -187500.02235174447, -187500.02235174447, -187500.02235174447, -187500.02235174447, -187500.02235174447, -187500.02235174447, -187500.02235174447, 0.514, -0.248, 0.8320000000000001, 192.0, 0.0, 0.0, 0.0, 0.0, 0.0, 0.0, 0.0, 0.0, 0.0, 1.7161962038257244E9, 0.0, 2024-05-20 12:10:03.825
240.0, -1146.108048690325, -187500.02235174447, -187500.02235174447, -187500.02235174447, -187500.02235174447, -187500.02235174447, -187500.02235174447, -187500.02235174447, 0.514, -0.248, 0.8320000000000001, 192.0, 0.0, 0.0, 0.0, 0.0, 0.0, 0.0, 0.0, 0.0, 0.0, 1.7161962038297493E9, 0.0, 2024-05-20 12:10:03.829
241.0, -1135.1109904183138, -187500.02235174447, -187500.02235174447, -187500.02235174447, -187500.02235174447, -187500.02235174447, -187500.02235174447, -187500.02235174447, 0.514, -0.258, 0.8320000000000001, 192.0, 16.0, 16.0, 247.0, 240.0, 26.0, 0.0, 0.0, 0.0, 0.0, 1.7161962038337655E9, 0.0, 2024-05-20 12:10:03.833
242.0, -1119.2189001105905, -187500.02235174447, -187500.02235174447, -187500.02235174447, -187500.02235174447, -187500.02235174447, -187500.02235174447, -187500.02235174447, 0.514, -0.258, 0.8320000000000001, 192.0, 0.0, 0.0, 0.0, 0.0, 0.0, 0.0, 0.0, 0.0, 0.0, 1.716196203837851E9, 0.0, 2024-05-20 12:10:03.837
243.0, -1109.495891272532, -187500.02235174447, -187500.02235174447, -187500.02235174447, -187500.02235174447, -187500.02235174447, -187500.02235174447, -187500.02235174447, 0.514, -0.258, 0.8320000000000001, 192.0, 0.0, 0.0, 0.0, 0.0, 0.0, 0.0, 0.0, 0.0, 0.0, 1.7161962038407855E9, 0.0, 2024-05-20 12:10:03.840
244.0, -1136.8320747413725, -187500.02235174447, -187500.02235174447, -187500.02235174447, -187500.02235174447, -187500.02235174447, -187500.02235174447, -187500.02235174447, 0.514, -0.258, 0.8320000000000001, 192.0, 0.0, 0.0, 0.0, 0.0, 0.0, 0.0, 0.0, 0.0, 0.0, 1.716196203844829E9, 0.0, 2024-05-20 12:10:03.844
245.0, -1151.6959848041517, -187500.02235174447, -187500.02235174447, -187500.02235174447, -187500.02235174447, -187500.02235174447, -187500.02235174447, -187500.02235174447, 0.514, -0.258, 0.8320000000000001, 192.0, 0.0, 0.0, 0.0, 0.0, 0.0, 0.0, 0.0, 0.0, 0.0, 1.7161962038488162E9, 0.0, 2024-05-20 12:10:03.848
246.0, -1130.0147926825039, -187500.02235174447, -187500.02235174447, -187500.02235174447, -187500.02235174447, -187500.02235174447, -187500.02235174447, -187500.02235174447, 0.514, -0.258, 0.8320000000000001, 192.0, 0.0, 0.0, 0.0, 0.0, 0.0, 0.0, 0.0, 0.0, 0.0, 1.7161962038529274E9, 0.0, 2024-05-20 12:10:03.852
247.0, -1108.333600560856, -187500.02235174447, -187500.02235174447, -187500.02235174447, -187500.02235174447, -187500.02235174447, -187500.02235174447, -187500.02235174447, 0.514, -0.258, 0.8320000000000001, 192.0, 0.0, 0.0, 0.0, 0.0, 0.0, 0.0, 0.0, 0.0, 0.0, 1.7161962038578532E9, 0.0, 2024-05-20 12:10:03.857
248.0, -1109.5629465058978, -187500.02235174447, -187500.02235174447, -187500.02235174447, -187500.02235174447, -187500.02235174447, -187500.02235174447, -187500.02235174447, 0.514, -0.258, 0.8320000000000001, 192.0, 0.0, 0.0, 0.0, 0.0, 0.0, 0.0, 0.0, 0.0, 0.0, 1.716196203861999E9, 0.0, 2024-05-20 12:10:03.861
249.0, -1137.972013708593, -187500.02235174447, -187500.02235174447, -187500.02235174447, -187500.02235174447, -187500.02235174447, -187500.02235174447, -187500.02235174447, 0.514, -0.258, 0.8320000000000001, 192.0, 0.0, 0.0, 0.0, 0.0, 0.0, 0.0, 0.0, 0.0, 0.0, 1.716196203865939E9, 0.0, 2024-05-20 12:10:03.865
250.0, -1153.0147377270148, -187500.02235174447, -187500.02235174447, -187500.02235174447, -187500.02235174447, -187500.02235174447, -187500.02235174447, -187500.02235174447, 0.514, -0.258, 0.8320000000000001, 192.0, 0.0, 0.0, 0.0, 0.0, 0.0, 0.0, 0.0, 0.0, 0.0, 1.716196203869926E9, 0.0, 2024-05-20 12:10:03.869
251.0, -1133.300499117434, -187500.02235174447, -187500.02235174447, -187500.02235174447, -187500.02235174447, -187500.02235174447, -187500.02235174447, -187500.02235174447, 0.514, -0.252, 0.834, 192.0, 16.0, 16.0, 248.0, 32.0, 26.0, 16.0, 0.0, 0.0, 0.0, 1.7161962038729057E9, 0.0, 2024-05-20 12:10:03.872
252.0, -1117.0507808984257, -187500.02235174447, -187500.02235174447, -187500.02235174447, -187500.02235174447, -187500.02235174447, -187500.02235174447, -187500.02235174447, 0.514, -0.252, 0.834, 192.0, 0.0, 0.0, 0.0, 0.0, 0.0, 0.0, 0.0, 0.0, 0.0, 1.7161962038769424E9, 0.0, 2024-05-20 12:10:03.876
253.0, -1109.1829668501578, -187500.02235174447, -187500.02235174447, -187500.02235174447, -187500.02235174447, -187500.02235174447, -187500.02235174447, -187500.02235174447, 0.514, -0.252, 0.834, 192.0, 0.0, 0.0, 0.0, 0.0, 0.0, 0.0, 0.0, 0.0, 0.0, 1.716196203880944E9, 0.0, 2024-05-20 12:10:03.880
254.0, -1145.593958567853, -187500.02235174447, -187500.02235174447, -187500.02235174447, -187500.02235174447, -187500.02235174447, -187500.02235174447, -187500.02235174447, 0.514, -0.252, 0.834, 192.0, 0.0, 0.0, 0.0, 0.0, 0.0, 0.0, 0.0, 0.0, 0.0, 1.7161962038859792E9, 0.0, 2024-05-20 12:10:03.885
255.0, -1152.5677028379087, -187500.02235174447, -187500.02235174447, -187500.02235174447, -187500.02235174447, -187500.02235174447, -187500.02235174447, -187500.02235174447, 0.514, -0.252, 0.834, 192.0, 0.0, 0.0, 0.0, 0.0, 0.0, 0.0, 0.0, 0.0, 0.0, 1.7161962038899872E9, 0.0, 2024-05-20 12:10:03.889
0.0, -1127.3772868367776, -187500.02235174447, -187500.02235174447, -187500.02235174447, -187500.02235174447, -187500.02235174447, -187500.02235174447, -187500.02235174447, 0.514, -0.252, 0.834, 192.0, 0.0, 0.0, 0.0, 0.0, 0.0, 0.0, 0.0, 0.0, 0.0, 1.7161962038939753E9, 0.0, 2024-05-20 12:10:03.893
1.0, -1087.7029404286077, -187500.02235174447, -187500.02235174447, -187500.02235174447, -187500.02235174447, -187500.02235174447, -187500.02235174447, -187500.02235174447, 0.514, -0.252, 0.834, 192.0, 0.0, 0.0, 0.0, 0.0, 0.0, 0.0, 0.0, 0.0, 0.0, 1.716196203896982E9, 0.0, 2024-05-20 12:10:03.896
2.0, -1111.0828651288589, -187500.02235174447, -187500.02235174447, -187500.02235174447, -187500.02235174447, -187500.02235174447, -187500.02235174447, -187500.02235174447, 0.514, -0.252, 0.834, 192.0, 0.0, 0.0, 0.0, 0.0, 0.0, 0.0, 0.0, 0.0, 0.0, 1.716196203901049E9, 0.0, 2024-05-20 12:10:03.901
3.0, -1151.5171708485093, -187500.02235174447, -187500.02235174447, -187500.02235174447, -187500.02235174447, -187500.02235174447, -187500.02235174447, -187500.02235174447, 0.514, -0.252, 0.834, 192.0, 0.0, 0.0, 0.0, 0.0, 0.0, 0.0, 0.0, 0.0, 0.0, 1.7161962039050765E9, 0.0, 2024-05-20 12:10:03.905
4.0, -1127.3102316034117, -187500.02235174447, -187500.02235174447, -187500.02235174447, -187500.02235174447, -187500.02235174447, -187500.02235174447, -187500.02235174447, 0.516, -0.252, 0.834, 192.0, 16.0, 32.0, 248.0, 32.0, 26.0, 16.0, 0.0, 0.0, 0.0, 1.7161962039090495E9, 0.0, 2024-05-20 12:10:03.909
5.0, -1138.3072898754228, -187500.02235174447, -187500.02235174447, -187500.02235174447, -187500.02235174447, -187500.02235174447, -187500.02235174447, -187500.02235174447, 0.516, -0.252, 0.834, 192.0, 0.0, 0.0, 0.0, 0.0, 0.0, 0.0, 0.0, 0.0, 0.0, 1.7161962039131513E9, 0.0, 2024-05-20 12:10:03.913
6.0, -1137.0779439303808, -187500.02235174447, -187500.02235174447, -187500.02235174447, -187500.02235174447, -187500.02235174447, -187500.02235174447, -187500.02235174447, 0.516, -0.252, 0.834, 192.0, 0.0, 0.0, 0.0, 0.0, 0.0, 0.0, 0.0, 0.0, 0.0, 1.7161962039182496E9, 0.0, 2024-05-20 12:10:03.918
7.0, -1137.4132200972106, -187500.02235174447, -187500.02235174447, -187500.02235174447, -187500.02235174447, -187500.02235174447, -187500.02235174447, -187500.02235174447, 0.516, -0.252, 0.834, 192.0, 0.0, 0.0, 0.0, 0.0, 0.0, 0.0, 0.0, 0.0, 0.0, 1.7161962039221709E9, 0.0, 2024-05-20 12:10:03.922
8.0, -1156.367499395311, -187500.02235174447, -187500.02235174447, -187500.02235174447, -187500.02235174447, -187500.02235174447, -187500.02235174447, -187500.02235174447, 0.516, -0.252, 0.834, 192.0, 0.0, 0.0, 0.0, 0.0, 0.0, 0.0, 0.0, 0.0, 0.0, 1.716196203925114E9, 0.0, 2024-05-20 12:10:03.925
9.0, -1175.299426948956, -187500.02235174447, -187500.02235174447, -187500.02235174447, -187500.02235174447, -187500.02235174447, -187500.02235174447, -187500.02235174447, 0.516, -0.252, 0.834, 192.0, 0.0, 0.0, 0.0, 0.0, 0.0, 0.0, 0.0, 0.0, 0.0, 1.7161962039291193E9, 0.0, 2024-05-20 12:10:03.929
10.0, -1152.7241650490957, -187500.02235174447, -187500.02235174447, -187500.02235174447, -187500.02235174447, -187500.02235174447, -187500.02235174447, -187500.02235174447, 0.516, -0.252, 0.834, 192.0, 0.0, 0.0, 0.0, 0.0, 0.0, 0.0, 0.0, 0.0, 0.0, 1.7161962039331398E9, 0.0, 2024-05-20 12:10:03.933
11.0, -1115.7096762311073, -187500.02235174447, -187500.02235174447, -187500.02235174447, -187500.02235174447, -187500.02235174447, -187500.02235174447, -187500.02235174447, 0.516, -0.252, 0.834, 192.0, 0.0, 0.0, 0.0, 0.0, 0.0, 0.0, 0.0, 0.0, 0.0, 1.7161962039371648E9, 0.0, 2024-05-20 12:10:03.937
12.0, -1127.4666938145988, -187500.02235174447, -187500.02235174447, -187500.02235174447, -187500.02235174447, -187500.02235174447, -187500.02235174447, -187500.02235174447, 0.516, -0.252, 0.834, 192.0, 0.0, 0.0, 0.0, 0.0, 0.0, 0.0, 0.0, 0.0, 0.0, 1.716196203941188E9, 0.0, 2024-05-20 12:10:03.941
13.0, -1150.0643074589143, -187500.02235174447, -187500.02235174447, -187500.02235174447, -187500.02235174447, -187500.02235174447, -187500.02235174447, -187500.02235174447, 0.516, -0.252, 0.834, 192.0, 0.0, 0.0, 0.0, 0.0, 0.0, 0.0, 0.0, 0.0, 0.0, 1.7161962039462044E9, 0.0, 2024-05-20 12:10:03.946
14.0, -1165.4423076441656, -187500.02235174447, -187500.02235174447, -187500.02235174447, -187500.02235174447, -187500.02235174447, -187500.02235174447, -187500.02235174447, 0.516, -0.256, 0.834, 192.0, 16.0, 32.0, 248.0, 0.0, 26.0, 16.0, 0.0, 0.0, 0.0, 1.7161962039502344E9, 0.0, 2024-05-20 12:10:03.950
15.0, -1147.9855952245707, -187500.02235174447, -187500.02235174447, -187500.02235174447, -187500.02235174447, -187500.02235174447, -187500.02235174447, -187500.02235174447, 0.516, -0.256, 0.834, 192.0, 0.0, 0.0, 0.0, 0.0, 0.0, 0.0, 0.0, 0.0, 0.0, 1.7161962039532387E9, 0.0, 2024-05-20 12:10:03.953
16.0, -1122.5716617788867, -187500.02235174447, -187500.02235174447, -187500.02235174447, -187500.02235174447, -187500.02235174447, -187500.02235174447, -187500.02235174447, 0.516, -0.256, 0.834, 192.0, 0.0, 0.0, 0.0, 0.0, 0.0, 0.0, 0.0, 0.0, 0.0, 1.7161962039582405E9, 0.0, 2024-05-20 12:10:03.958
17.0, -1119.6212315107862, -187500.02235174447, -187500.02235174447, -187500.02235174447, -187500.02235174447, -187500.02235174447, -187500.02235174447, -187500.02235174447, 0.516, -0.256, 0.834, 192.0, 0.0, 0.0, 0.0, 0.0, 0.0, 0.0, 0.0, 0.0, 0.0, 1.7161962039622588E9, 0.0, 2024-05-20 12:10:03.962
18.0, -1147.1809324241797, -187500.02235174447, -187500.02235174447, -187500.02235174447, -187500.02235174447, -187500.02235174447, -187500.02235174447, -187500.02235174447, 0.516, -0.256, 0.834, 192.0, 0.0, 0.0, 0.0, 0.0, 0.0, 0.0, 0.0, 0.0, 0.0, 1.7161962039652605E9, 0.0, 2024-05-20 12:10:03.965
19.0, -1165.621121599808, -187500.02235174447, -187500.02235174447, -187500.02235174447, -187500.02235174447, -187500.02235174447, -187500.02235174447, -187500.02235174447, 0.516, -0.256, 0.834, 192.0, 0.0, 0.0, 0.0, 0.0, 0.0, 0.0, 0.0, 0.0, 0.0, 1.7161962039692793E9, 0.0, 2024-05-20 12:10:03.969
20.0, -1150.690156303663, -187500.02235174447, -187500.02235174447, -187500.02235174447, -187500.02235174447, -187500.02235174447, -187500.02235174447, -187500.02235174447, 0.516, -0.256, 0.834, 192.0, 0.0, 0.0, 0.0, 0.0, 0.0, 0.0, 0.0, 0.0, 0.0, 1.7161962039733086E9, 0.0, 2024-05-20 12:10:03.973
21.0, -1126.9973071810375, -187500.02235174447, -187500.02235174447, -187500.02235174447, -187500.02235174447, -187500.02235174447, -187500.02235174447, -187500.02235174447, 0.516, -0.256, 0.834, 192.0, 0.0, 0.0, 0.0, 0.0, 0.0, 0.0, 0.0, 0.0, 0.0, 1.7161962039783518E9, 0.0, 2024-05-20 12:10:03.978
22.0, -1118.6154030102973, -187500.02235174447, -187500.02235174447, -187500.02235174447, -187500.02235174447, -187500.02235174447, -187500.02235174447, -187500.02235174447, 0.516, -0.256, 0.834, 192.0, 0.0, 0.0, 0.0, 0.0, 0.0, 0.0, 0.0, 0.0, 0.0, 1.7161962039813232E9, 0.0, 2024-05-20 12:10:03.981
23.0, -1142.8893974887608, -187500.02235174447, -187500.02235174447, -187500.02235174447, -187500.02235174447, -187500.02235174447, -187500.02235174447, -187500.02235174447, 0.516, -0.256, 0.834, 192.0, 0.0, 0.0, 0.0, 0.0, 0.0, 0.0, 0.0, 0.0, 0.0, 1.7161962039853225E9, 0.0, 2024-05-20 12:10:03.985
24.0, -1139.1343044202692, -187500.02235174447, -187500.02235174447, -187500.02235174447, -187500.02235174447, -187500.02235174447, -187500.02235174447, -187500.02235174447, 0.518, -0.25, 0.834, 192.0, 16.0, 48.0, 248.0, 48.0, 26.0, 16.0, 0.0, 0.0, 0.0, 1.716196203989344E9, 0.0, 2024-05-20 12:10:03.989
25.0, -1122.1022751453252, -187500.02235174447, -187500.02235174447, -187500.02235174447, -187500.02235174447, -187500.02235174447, -187500.02235174447, -187500.02235174447, 0.518, -0.25, 0.834, 192.0, 0.0, 0.0, 0.0, 0.0, 0.0, 0.0, 0.0, 0.0, 0.0, 1.7161962039933891E9, 0.0, 2024-05-20 12:10:03.993
26.0, -1138.687269531163, -187500.02235174447, -187500.02235174447, -187500.02235174447, -187500.02235174447, -187500.02235174447, -187500.02235174447, -187500.02235174447, 0.518, -0.25, 0.834, 192.0, 0.0, 0.0, 0.0, 0.0, 0.0, 0.0, 0.0, 0.0, 0.0, 1.7161962039973729E9, 0.0, 2024-05-20 12:10:03.997
27.0, -1122.2587373565123, -187500.02235174447, -187500.02235174447, -187500.02235174447, -187500.02235174447, -187500.02235174447, -187500.02235174447, -187500.02235174447, 0.518, -0.25, 0.834, 192.0, 0.0, 0.0, 0.0, 0.0, 0.0, 0.0, 0.0, 0.0, 0.0, 1.7161962040023952E9, 0.0, 2024-05-20 12:10:04.002
28.0, -1142.5094178330205, -187500.02235174447, -187500.02235174447, -187500.02235174447, -187500.02235174447, -187500.02235174447, -187500.02235174447, -187500.02235174447, 0.518, -0.25, 0.834, 192.0, 0.0, 0.0, 0.0, 0.0, 0.0, 0.0, 0.0, 0.0, 0.0, 1.7161962040054235E9, 0.0, 2024-05-20 12:10:04.005
29.0, -1168.750365823551, -187500.02235174447, -187500.02235174447, -187500.02235174447, -187500.02235174447, -187500.02235174447, -187500.02235174447, -187500.02235174447, 0.518, -0.25, 0.834, 192.0, 0.0, 0.0, 0.0, 0.0, 0.0, 0.0, 0.0, 0.0, 0.0, 1.7161962040084524E9, 0.0, 2024-05-20 12:10:04.008
30.0, -1155.5404848504645, -187500.02235174447, -187500.02235174447, -187500.02235174447, -187500.02235174447, -187500.02235174447, -187500.02235174447, -187500.02235174447, 0.518, -0.25, 0.834, 192.0, 0.0, 0.0, 0.0, 0.0, 0.0, 0.0, 0.0, 0.0, 0.0, 1.7161962040134845E9, 0.0, 2024-05-20 12:10:04.013
31.0, -1128.6960397596408, -187500.02235174447, -187500.02235174447, -187500.02235174447, -187500.02235174447, -187500.02235174447, -187500.02235174447, -187500.02235174447, 0.518, -0.25, 0.834, 192.0, 0.0, 0.0, 0.0, 0.0, 0.0, 0.0, 0.0, 0.0, 0.0, 1.7161962040174484E9, 0.0, 2024-05-20 12:10:04.017
32.0, -1124.203339124124, -187500.02235174447, -187500.02235174447, -187500.02235174447, -187500.02235174447, -187500.02235174447, -187500.02235174447, -187500.02235174447, 0.518, -0.25, 0.834, 192.0, 0.0, 0.0, 0.0, 0.0, 0.0, 0.0, 0.0, 0.0, 0.0, 1.7161962040214553E9, 0.0, 2024-05-20 12:10:04.021
33.0, -1147.9185399912049, -187500.02235174447, -187500.02235174447, -187500.02235174447, -187500.02235174447, -187500.02235174447, -187500.02235174447, -187500.02235174447, 0.518, -0.25, 0.834, 192.0, 0.0, 0.0, 0.0, 0.0, 0.0, 0.0, 0.0, 0.0, 0.0, 1.716196204025478E9, 0.0, 2024-05-20 12:10:04.025
34.0, -1166.783412311484, -187500.02235174447, -187500.02235174447, -187500.02235174447, -187500.02235174447, -187500.02235174447, -187500.02235174447, -187500.02235174447, 0.514, -0.254, 0.836, 192.0, 16.0, 16.0, 248.0, 16.0, 26.0, 32.0, 0.0, 0.0, 0.0, 1.7161962040295048E9, 0.0, 2024-05-20 12:10:04.029
35.0, -1138.8660834868056, -187500.02235174447, -187500.02235174447, -187500.02235174447, -187500.02235174447, -187500.02235174447, -187500.02235174447, -187500.02235174447, 0.514, -0.254, 0.836, 192.0, 0.0, 0.0, 0.0, 0.0, 0.0, 0.0, 0.0, 0.0, 0.0, 1.7161962040335183E9, 0.0, 2024-05-20 12:10:04.033
36.0, -1121.9905164230486, -187500.02235174447, -187500.02235174447, -187500.02235174447, -187500.02235174447, -187500.02235174447, -187500.02235174447, -187500.02235174447, 0.514, -0.254, 0.836, 192.0, 0.0, 0.0, 0.0, 0.0, 0.0, 0.0, 0.0, 0.0, 0.0, 1.7161962040365295E9, 0.0, 2024-05-20 12:10:04.036
37.0, -1129.6795165156743, -187500.02235174447, -187500.02235174447, -187500.02235174447, -187500.02235174447, -187500.02235174447, -187500.02235174447, -187500.02235174447, 0.514, -0.254, 0.836, 192.0, 0.0, 0.0, 0.0, 0.0, 0.0, 0.0, 0.0, 0.0, 0.0, 1.7161962040405283E9, 0.0, 2024-05-20 12:10:04.040
38.0, -1147.3820981242775, -187500.02235174447, -187500.02235174447, -187500.02235174447, -187500.02235174447, -187500.02235174447, -187500.02235174447, -187500.02235174447, 0.514, -0.254, 0.836, 192.0, 0.0, 0.0, 0.0, 0.0, 0.0, 0.0, 0.0, 0.0, 0.0, 1.7161962040455596E9, 0.0, 2024-05-20 12:10:04.045
39.0, -1159.3179296634114, -187500.02235174447, -187500.02235174447, -187500.02235174447, -187500.02235174447, -187500.02235174447, -187500.02235174447, -187500.02235174447, 0.514, -0.254, 0.836, 192.0, 0.0, 0.0, 0.0, 0.0, 0.0, 0.0, 0.0, 0.0, 0.0, 1.7161962040495763E9, 0.0, 2024-05-20 12:10:04.049
40.0, -1146.2421591570567, -187500.02235174447, -187500.02235174447, -187500.02235174447, -187500.02235174447, -187500.02235174447, -187500.02235174447, -187500.02235174447, 0.514, -0.254, 0.836, 192.0, 0.0, 0.0, 0.0, 0.0, 0.0, 0.0, 0.0, 0.0, 0.0, 1.7161962040545738E9, 0.0, 2024-05-20 12:10:04.054
41.0, -1117.6319262542638, -187500.02235174447, -187500.02235174447, -187500.02235174447, -187500.02235174447, -187500.02235174447, -187500.02235174447, -187500.02235174447, 0.514, -0.254, 0.836, 192.0, 0.0, 0.0, 0.0, 0.0, 0.0, 0.0, 0.0, 0.0, 0.0, 1.716196204057574E9, 0.0, 2024-05-20 12:10:04.057
42.0, -1111.753417462518, -187500.02235174447, -187500.02235174447, -187500.02235174447, -187500.02235174447, -187500.02235174447, -187500.02235174447, -187500.02235174447, 0.514, -0.254, 0.836, 192.0, 0.0, 0.0, 0.0, 0.0, 0.0, 0.0, 0.0, 0.0, 0.0, 1.7161962040616703E9, 0.0, 2024-05-20 12:10:04.061
43.0, -1140.944795721149, -187500.02235174447, -187500.02235174447, -187500.02235174447, -187500.02235174447, -187500.02235174447, -187500.02235174447, -187500.02235174447, 0.516, -0.256, 0.834, 192.0, 16.0, 32.0, 248.0, 0.0, 26.0, 16.0, 0.0, 0.0, 0.0, 1.7161962040657504E9, 0.0, 2024-05-20 12:10:04.065
44.0, -1156.9709964956041, -187500.02235174447, -187500.02235174447, -187500.02235174447, -187500.02235174447, -187500.02235174447, -187500.02235174447, -187500.02235174447, 0.516, -0.256, 0.834, 192.0, 0.0, 0.0, 0.0, 0.0, 0.0, 0.0, 0.0, 0.0, 0.0, 1.7161962040696812E9, 0.0, 2024-05-20 12:10:04.069
45.0, -1140.0283741984815, -187500.02235174447, -187500.02235174447, -187500.02235174447, -187500.02235174447, -187500.02235174447, -187500.02235174447, -187500.02235174447, 0.516, -0.256, 0.834, 192.0, 0.0, 0.0, 0.0, 0.0, 0.0, 0.0, 0.0, 0.0, 0.0, 1.7161962040737119E9, 0.0, 2024-05-20 12:10:04.073
46.0, -1111.7087139736075, -187500.02235174447, -187500.02235174447, -187500.02235174447, -187500.02235174447, -187500.02235174447, -187500.02235174447, -187500.02235174447, 0.516, -0.256, 0.834, 192.0, 0.0, 0.0, 0.0, 0.0, 0.0, 0.0, 0.0, 0.0, 0.0, 1.716196204077695E9, 0.0, 2024-05-20 12:10:04.077
47.0, -1111.6416587402414, -187500.02235174447, -187500.02235174447, -187500.02235174447, -187500.02235174447, -187500.02235174447, -187500.02235174447, -187500.02235174447, 0.516, -0.256, 0.834, 192.0, 0.0, 0.0, 0.0, 0.0, 0.0, 0.0, 0.0, 0.0, 0.0, 1.716196204080753E9, 0.0, 2024-05-20 12:10:04.080
48.0, -1140.1848364096686, -187500.02235174447, -187500.02235174447, -187500.02235174447, -187500.02235174447, -187500.02235174447, -187500.02235174447, -187500.02235174447, 0.516, -0.256, 0.834, 192.0, 0.0, 0.0, 0.0, 0.0, 0.0, 0.0, 0.0, 0.0, 0.0, 1.7161962040846944E9, 0.0, 2024-05-20 12:10:04.084
49.0, -1159.9884819970707, -187500.02235174447, -187500.02235174447, -187500.02235174447, -187500.02235174447, -187500.02235174447, -187500.02235174447, -187500.02235174447, 0.516, -0.256, 0.834, 192.0, 0.0, 0.0, 0.0, 0.0, 0.0, 0.0, 0.0, 0.0, 0.0, 1.7161962040897515E9, 0.0, 2024-05-20 12:10:04.089
50.0, -1147.0915254463584, -187500.02235174447, -187500.02235174447, -187500.02235174447, -187500.02235174447, -187500.02235174447, -187500.02235174447, -187500.02235174447, 0.516, -0.256, 0.834, 192.0, 0.0, 0.0, 0.0, 0.0, 0.0, 0.0, 0.0, 0.0, 0.0, 1.7161962040937464E9, 0.0, 2024-05-20 12:10:04.093
51.0, -1117.6319262542638, -187500.02235174447, -187500.02235174447, -187500.02235174447, -187500.02235174447, -187500.02235174447, -187500.02235174447, -187500.02235174447, 0.516, -0.256, 0.834, 192.0, 0.0, 0.0, 0.0, 0.0, 0.0, 0.0, 0.0, 0.0, 0.0, 1.7161962040977907E9, 0.0, 2024-05-20 12:10:04.097
52.0, -1112.3569145628112, -187500.02235174447, -187500.02235174447, -187500.02235174447, -187500.02235174447, -187500.02235174447, -187500.02235174447, -187500.02235174447, 0.516, -0.256, 0.834, 192.0, 0.0, 0.0, 0.0, 0.0, 0.0, 0.0, 0.0, 0.0, 0.0, 1.7161962041007936E9, 0.0, 2024-05-20 12:10:04.100
53.0, -1150.4219353701992, -187500.02235174447, -187500.02235174447, -187500.02235174447, -187500.02235174447, -187500.02235174447, -187500.02235174447, -187500.02235174447, 0.516, -0.266, 0.8320000000000001, 192.0, 16.0, 32.0, 247.0, 176.0, 26.0, 0.0, 0.0, 0.0, 0.0, 1.7161962041048045E9, 0.0, 2024-05-20 12:10:04.104
54.0, -1179.747424095562, -187500.02235174447, -187500.02235174447, -187500.02235174447, -187500.02235174447, -187500.02235174447, -187500.02235174447, -187500.02235174447, 0.516, -0.266, 0.8320000000000001, 192.0, 0.0, 0.0, 0.0, 0.0, 0.0, 0.0, 0.0, 0.0, 0.0, 1.7161962041088572E9, 0.0, 2024-05-20 12:10:04.108
55.0, -1153.9982144830483, -187500.02235174447, -187500.02235174447, -187500.02235174447, -187500.02235174447, -187500.02235174447, -187500.02235174447, -187500.02235174447, 0.516, -0.266, 0.8320000000000001, 192.0, 0.0, 0.0, 0.0, 0.0, 0.0, 0.0, 0.0, 0.0, 0.0, 1.7161962041128461E9, 0.0, 2024-05-20 12:10:04.112
56.0, -1131.758228750018, -187500.02235174447, -187500.02235174447, -187500.02235174447, -187500.02235174447, -187500.02235174447, -187500.02235174447, -187500.02235174447, 0.516, -0.266, 0.8320000000000001, 192.0, 0.0, 0.0, 0.0, 0.0, 0.0, 0.0, 0.0, 0.0, 0.0, 1.7161962041189911E9, 0.0, 2024-05-20 12:10:04.118
57.0, -1128.4725223150876, -187500.02235174447, -187500.02235174447, -187500.02235174447, -187500.02235174447, -187500.02235174447, -187500.02235174447, -187500.02235174447, 0.516, -0.266, 0.8320000000000001, 192.0, 0.0, 0.0, 0.0, 0.0, 0.0, 0.0, 0.0, 0.0, 0.0, 1.7161962041218367E9, 0.0, 2024-05-20 12:10:04.121
58.0, -1149.3043481474338, -187500.02235174447, -187500.02235174447, -187500.02235174447, -187500.02235174447, -187500.02235174447, -187500.02235174447, -187500.02235174447, 0.516, -0.266, 0.8320000000000001, 192.0, 0.0, 0.0, 0.0, 0.0, 0.0, 0.0, 0.0, 0.0, 0.0, 1.716196204126904E9, 0.0, 2024-05-20 12:10:04.126
59.0, -1160.077888974892, -187500.02235174447, -187500.02235174447, -187500.02235174447, -187500.02235174447, -187500.02235174447, -187500.02235174447, -187500.02235174447, 0.516, -0.266, 0.8320000000000001, 192.0, 0.0, 0.0, 0.0, 0.0, 0.0, 0.0, 0.0, 0.0, 0.0, 1.7161962041309009E9, 0.0, 2024-05-20 12:10:04.130
60.0, -1124.0915804018475, -187500.02235174447, -187500.02235174447, -187500.02235174447, -187500.02235174447, -187500.02235174447, -187500.02235174447, -187500.02235174447, 0.516, -0.266, 0.8320000000000001, 192.0, 0.0, 0.0, 0.0, 0.0, 0.0, 0.0, 0.0, 0.0, 0.0, 1.7161962041339056E9, 0.0, 2024-05-20 12:10:04.133
61.0, -1085.5124694719875, -187500.02235174447, -187500.02235174447, -187500.02235174447, -187500.02235174447, -187500.02235174447, -187500.02235174447, -187500.02235174447, 0.516, -0.266, 0.8320000000000001, 192.0, 0.0, 0.0, 0.0, 0.0, 0.0, 0.0, 0.0, 0.0, 0.0, 1.716196204136911E9, 0.0, 2024-05-20 12:10:04.136
62.0, -1076.4823647120434, -187500.02235174447, -187500.02235174447, -187500.02235174447, -187500.02235174447, -187500.02235174447, -187500.02235174447, -187500.02235174447, 0.516, -0.266, 0.8320000000000001, 192.0, 0.0, 0.0, 0.0, 0.0, 0.0, 0.0, 0.0, 0.0, 0.0, 1.7161962041409163E9, 0.0, 2024-05-20 12:10:04.140
63.0, -1104.3549900478113, -187500.02235174447, -187500.02235174447, -187500.02235174447, -187500.02235174447, -187500.02235174447, -187500.02235174447, -187500.02235174447, 0.516, -0.252, 0.836, 192.0, 16.0, 32.0, 248.0, 32.0, 26.0, 32.0, 0.0, 0.0, 0.0, 1.7161962041449847E9, 0.0, 2024-05-20 12:10:04.144
64.0, -1154.557008094431, -187500.02235174447, -187500.02235174447, -187500.02235174447, -187500.02235174447, -187500.02235174447, -187500.02235174447, -187500.02235174447, 0.516, -0.252, 0.836, 192.0, 0.0, 0.0, 0.0, 0.0, 0.0, 0.0, 0.0, 0.0, 0.0, 1.7161962041500251E9, 0.0, 2024-05-20 12:10:04.150
65.0, -1136.6085572968195, -187500.02235174447, -187500.02235174447, -187500.02235174447, -187500.02235174447, -187500.02235174447, -187500.02235174447, -187500.02235174447, 0.516, -0.252, 0.836, 192.0, 0.0, 0.0, 0.0, 0.0, 0.0, 0.0, 0.0, 0.0, 0.0, 1.716196204153992E9, 0.0, 2024-05-20 12:10:04.153
66.0, -1090.8321846523506, -187500.02235174447, -187500.02235174447, -187500.02235174447, -187500.02235174447, -187500.02235174447, -187500.02235174447, -187500.02235174447, 0.516, -0.252, 0.836, 192.0, 0.0, 0.0, 0.0, 0.0, 0.0, 0.0, 0.0, 0.0, 0.0, 1.7161962041569836E9, 0.0, 2024-05-20 12:10:04.156
67.0, -1084.5736962048645, -187500.02235174447, -187500.02235174447, -187500.02235174447, -187500.02235174447, -187500.02235174447, -187500.02235174447, -187500.02235174447, 0.516, -0.252, 0.836, 192.0, 0.0, 0.0, 0.0, 0.0, 0.0, 0.0, 0.0, 0.0, 0.0, 1.7161962041610298E9, 0.0, 2024-05-20 12:10:04.161
68.0, -1090.720425930074, -187500.02235174447, -187500.02235174447, -187500.02235174447, -187500.02235174447, -187500.02235174447, -187500.02235174447, -187500.02235174447, 0.516, -0.252, 0.836, 192.0, 0.0, 0.0, 0.0, 0.0, 0.0, 0.0, 0.0, 0.0, 0.0, 1.7161962041650393E9, 0.0, 2024-05-20 12:10:04.165
69.0, -1103.080940613859, -187500.02235174447, -187500.02235174447, -187500.02235174447, -187500.02235174447, -187500.02235174447, -187500.02235174447, -187500.02235174447, 0.516, -0.252, 0.836, 192.0, 0.0, 0.0, 0.0, 0.0, 0.0, 0.0, 0.0, 0.0, 0.0, 1.7161962041690671E9, 0.0, 2024-05-20 12:10:04.169
70.0, -1154.400545883244, -187500.02235174447, -187500.02235174447, -187500.02235174447, -187500.02235174447, -187500.02235174447, -187500.02235174447, -187500.02235174447, 0.516, -0.252, 0.836, 192.0, 0.0, 0.0, 0.0, 0.0, 0.0, 0.0, 0.0, 0.0, 0.0, 1.716196204173089E9, 0.0, 2024-05-20 12:10:04.173
71.0, -1123.8680629572943, -187500.02235174447, -187500.02235174447, -187500.02235174447, -187500.02235174447, -187500.02235174447, -187500.02235174447, -187500.02235174447, 0.516, -0.252, 0.836, 192.0, 0.0, 0.0, 0.0, 0.0, 0.0, 0.0, 0.0, 0.0, 0.0, 1.716196204177062E9, 0.0, 2024-05-20 12:10:04.177
72.0, -1143.850522500339, -187500.02235174447, -187500.02235174447, -187500.02235174447, -187500.02235174447, -187500.02235174447, -187500.02235174447, -187500.02235174447, 0.516, -0.252, 0.836, 192.0, 0.0, 0.0, 0.0, 0.0, 0.0, 0.0, 0.0, 0.0, 0.0, 1.7161962041821759E9, 0.0, 2024-05-20 12:10:04.182
73.0, -1169.2868076904783, -187500.02235174447, -187500.02235174447, -187500.02235174447, -187500.02235174447, -187500.02235174447, -187500.02235174447, -187500.02235174447, 0.512, -0.26, 0.834, 192.0, 16.0, 0.0, 247.0, 224.0, 26.0, 16.0, 0.0, 0.0, 0.0, 1.7161962041851444E9, 0.0, 2024-05-20 12:10:04.185
74.0, -1155.4734296170986, -187500.02235174447, -187500.02235174447, -187500.02235174447, -187500.02235174447, -187500.02235174447, -187500.02235174447, -187500.02235174447, 0.512, -0.26, 0.834, 192.0, 0.0, 0.0, 0.0, 0.0, 0.0, 0.0, 0.0, 0.0, 0.0, 1.7161962041891248E9, 0.0, 2024-05-20 12:10:04.189
75.0, -1110.009981395004, -187500.02235174447, -187500.02235174447, -187500.02235174447, -187500.02235174447, -187500.02235174447, -187500.02235174447, -187500.02235174447, 0.512, -0.26, 0.834, 192.0, 0.0, 0.0, 0.0, 0.0, 0.0, 0.0, 0.0, 0.0, 0.0, 1.716196204193149E9, 0.0, 2024-05-20 12:10:04.193
76.0, -1137.7931997529506, -187500.02235174447, -187500.02235174447, -187500.02235174447, -187500.02235174447, -187500.02235174447, -187500.02235174447, -187500.02235174447, 0.512, -0.26, 0.834, 192.0, 0.0, 0.0, 0.0, 0.0, 0.0, 0.0, 0.0, 0.0, 0.0, 1.7161962041971648E9, 0.0, 2024-05-20 12:10:04.197
77.0, -1131.4676560720989, -187500.02235174447, -187500.02235174447, -187500.02235174447, -187500.02235174447, -187500.02235174447, -187500.02235174447, -187500.02235174447, 0.512, -0.26, 0.834, 192.0, 0.0, 0.0, 0.0, 0.0, 0.0, 0.0, 0.0, 0.0, 0.0, 1.7161962042013538E9, 0.0, 2024-05-20 12:10:04.201
78.0, -1116.849615198328, -187500.02235174447, -187500.02235174447, -187500.02235174447, -187500.02235174447, -187500.02235174447, -187500.02235174447, -187500.02235174447, 0.512, -0.26, 0.834, 192.0, 0.0, 0.0, 0.0, 0.0, 0.0, 0.0, 0.0, 0.0, 0.0, 1.716196204205184E9, 0.0, 2024-05-20 12:10:04.205
79.0, -1138.5084555755207, -187500.02235174447, -187500.02235174447, -187500.02235174447, -187500.02235174447, -187500.02235174447, -187500.02235174447, -187500.02235174447, 0.512, -0.26, 0.834, 192.0, 0.0, 0.0, 0.0, 0.0, 0.0, 0.0, 0.0, 0.0, 0.0, 1.7161962042102041E9, 0.0, 2024-05-20 12:10:04.210
80.0, -1135.3121561184116, -187500.02235174447, -187500.02235174447, -187500.02235174447, -187500.02235174447, -187500.02235174447, -187500.02235174447, -187500.02235174447, 0.512, -0.26, 0.834, 192.0, 0.0, 0.0, 0.0, 0.0, 0.0, 0.0, 0.0, 0.0, 0.0, 1.7161962042132225E9, 0.0, 2024-05-20 12:10:04.213
81.0, -1116.491987287043, -187500.02235174447, -187500.02235174447, -187500.02235174447, -187500.02235174447, -187500.02235174447, -187500.02235174447, -187500.02235174447, 0.512, -0.26, 0.834, 192.0, 0.0, 0.0, 0.0, 0.0, 0.0, 0.0, 0.0, 0.0, 0.0, 1.7161962042162416E9, 0.0, 2024-05-20 12:10:04.216
82.0, -1082.3161700148785, -187500.02235174447, -187500.02235174447, -187500.02235174447, -187500.02235174447, -187500.02235174447, -187500.02235174447, -187500.02235174447, 0.512, -0.26, 0.834, 192.0, 0.0, 0.0, 0.0, 0.0, 0.0, 0.0, 0.0, 0.0, 0.0, 1.7161962042212303E9, 0.0, 2024-05-20 12:10:04.221
83.0, -1098.3423707893337, -187500.02235174447, -187500.02235174447, -187500.02235174447, -187500.02235174447, -187500.02235174447, -187500.02235174447, -187500.02235174447, 0.51, -0.26, 0.836, 192.0, 15.0, 240.0, 247.0, 224.0, 26.0, 32.0, 0.0, 0.0, 0.0, 1.7161962042252328E9, 0.0, 2024-05-20 12:10:04.225
84.0, -1126.4385135696548, -187500.02235174447, -187500.02235174447, -187500.02235174447, -187500.02235174447, -187500.02235174447, -187500.02235174447, -187500.02235174447, 0.51, -0.26, 0.836, 192.0, 0.0, 0.0, 0.0, 0.0, 0.0, 0.0, 0.0, 0.0, 0.0, 1.716196204229279E9, 0.0, 2024-05-20 12:10:04.229
85.0, -1102.365684791289, -187500.02235174447, -187500.02235174447, -187500.02235174447, -187500.02235174447, -187500.02235174447, -187500.02235174447, -187500.02235174447, 0.51, -0.26, 0.836, 192.0, 0.0, 0.0, 0.0, 0.0, 0.0, 0.0, 0.0, 0.0, 0.0, 1.7161962042333288E9, 0.0, 2024-05-20 12:10:04.233
86.0, -1085.177193305158, -187500.02235174447, -187500.02235174447, -187500.02235174447, -187500.02235174447, -187500.02235174447, -187500.02235174447, -187500.02235174447, 0.51, -0.26, 0.836, 192.0, 0.0, 0.0, 0.0, 0.0, 0.0, 0.0, 0.0, 0.0, 0.0, 1.7161962042382877E9, 0.0, 2024-05-20 12:10:04.238
87.0, -1102.1645190911913, -187500.02235174447, -187500.02235174447, -187500.02235174447, -187500.02235174447, -187500.02235174447, -187500.02235174447, -187500.02235174447, 0.51, -0.26, 0.836, 192.0, 0.0, 0.0, 0.0, 0.0, 0.0, 0.0, 0.0, 0.0, 0.0, 1.7161962042414868E9, 0.0, 2024-05-20 12:10:04.241
88.0, -1115.9108419312051, -187500.02235174447, -187500.02235174447, -187500.02235174447, -187500.02235174447, -187500.02235174447, -187500.02235174447, -187500.02235174447, 0.51, -0.26, 0.836, 192.0, 0.0, 0.0, 0.0, 0.0, 0.0, 0.0, 0.0, 0.0, 0.0, 1.7161962042443628E9, 0.0, 2024-05-20 12:10:04.244
89.0, -1102.589202235842, -187500.02235174447, -187500.02235174447, -187500.02235174447, -187500.02235174447, -187500.02235174447, -187500.02235174447, -187500.02235174447, 0.51, -0.26, 0.836, 192.0, 0.0, 0.0, 0.0, 0.0, 0.0, 0.0, 0.0, 0.0, 0.0, 1.7161962042493365E9, 0.0, 2024-05-20 12:10:04.249
90.0, -1075.945922845116, -187500.02235174447, -187500.02235174447, -187500.02235174447, -187500.02235174447, -187500.02235174447, -187500.02235174447, -187500.02235174447, 0.51, -0.26, 0.836, 192.0, 0.0, 0.0, 0.0, 0.0, 0.0, 0.0, 0.0, 0.0, 0.0, 1.7161962042534187E9, 0.0, 2024-05-20 12:10:04.253
91.0, -1061.9313790716385, -187500.02235174447, -187500.02235174447, -187500.02235174447, -187500.02235174447, -187500.02235174447, -187500.02235174447, -187500.02235174447, 0.51, -0.26, 0.836, 192.0, 0.0, 0.0, 0.0, 0.0, 0.0, 0.0, 0.0, 0.0, 0.0, 1.7161962042573807E9, 0.0, 2024-05-20 12:10:04.257
92.0, -1099.2587923120013, -187500.02235174447, -187500.02235174447, -187500.02235174447, -187500.02235174447, -187500.02235174447, -187500.02235174447, -187500.02235174447, 0.516, -0.262, 0.84, 192.0, 16.0, 32.0, 247.0, 208.0, 26.0, 64.0, 0.0, 0.0, 0.0, 1.7161962042613635E9, 0.0, 2024-05-20 12:10:04.261
93.0, -1128.0701909148922, -187500.02235174447, -187500.02235174447, -187500.02235174447, -187500.02235174447, -187500.02235174447, -187500.02235174447, -187500.02235174447, 0.516, -0.262, 0.84, 192.0, 0.0, 0.0, 0.0, 0.0, 0.0, 0.0, 0.0, 0.0, 0.0, 1.7161962042653968E9, 0.0, 2024-05-20 12:10:04.265
94.0, -1103.080940613859, -187500.02235174447, -187500.02235174447, -187500.02235174447, -187500.02235174447, -187500.02235174447, -187500.02235174447, -187500.02235174447, 0.516, -0.262, 0.84, 192.0, 0.0, 0.0, 0.0, 0.0, 0.0, 0.0, 0.0, 0.0, 0.0, 1.7161962042694616E9, 0.0, 2024-05-20 12:10:04.269
95.0, -1103.0585888694036, -187500.02235174447, -187500.02235174447, -187500.02235174447, -187500.02235174447, -187500.02235174447, -187500.02235174447, -187500.02235174447, 0.516, -0.262, 0.84, 192.0, 0.0, 0.0, 0.0, 0.0, 0.0, 0.0, 0.0, 0.0, 0.0, 1.7161962042724526E9, 0.0, 2024-05-20 12:10:04.272
96.0, -1113.5862605078532, -187500.02235174447, -187500.02235174447, -187500.02235174447, -187500.02235174447, -187500.02235174447, -187500.02235174447, -187500.02235174447, 0.516, -0.262, 0.84, 192.0, 0.0, 0.0, 0.0, 0.0, 0.0, 0.0, 0.0, 0.0, 0.0, 1.7161962042764573E9, 0.0, 2024-05-20 12:10:04.276
97.0, -1089.0216933514707, -187500.02235174447, -187500.02235174447, -187500.02235174447, -187500.02235174447, -187500.02235174447, -187500.02235174447, -187500.02235174447, 0.516, -0.262, 0.84, 192.0, 0.0, 0.0, 0.0, 0.0, 0.0, 0.0, 0.0, 0.0, 0.0, 1.716196204282459E9, 0.0, 2024-05-20 12:10:04.282
98.0, -1109.8311674393615, -187500.02235174447, -187500.02235174447, -187500.02235174447, -187500.02235174447, -187500.02235174447, -187500.02235174447, -187500.02235174447, 0.516, -0.262, 0.84, 192.0, 0.0, 0.0, 0.0, 0.0, 0.0, 0.0, 0.0, 0.0, 0.0, 1.716196204286494E9, 0.0, 2024-05-20 12:10:04.286
99.0, -1130.9312142051715, -187500.02235174447, -187500.02235174447, -187500.02235174447, -187500.02235174447, -187500.02235174447, -187500.02235174447, -187500.02235174447, 0.516, -0.262, 0.84, 192.0, 0.0, 0.0, 0.0, 0.0, 0.0, 0.0, 0.0, 0.0, 0.0, 1.7161962042904909E9, 0.0, 2024-05-20 12:10:04.290
100.0, -1104.0197138809817, -187500.02235174447, -187500.02235174447, -187500.02235174447, -187500.02235174447, -187500.02235174447, -187500.02235174447, -187500.02235174447, 0.516, -0.262, 0.84, 192.0, 0.0, 0.0, 0.0, 0.0, 0.0, 0.0, 0.0, 0.0, 0.0, 1.7161962042935088E9, 0.0, 2024-05-20 12:10:04.293
101.0, -1067.273445996457, -187500.02235174447, -187500.02235174447, -187500.02235174447, -187500.02235174447, -187500.02235174447, -187500.02235174447, -187500.02235174447, 0.516, -0.262, 0.84, 192.0, 0.0, 0.0, 0.0, 0.0, 0.0, 0.0, 0.0, 0.0, 0.0, 1.7161962042965345E9, 0.0, 2024-05-20 12:10:04.296
102.0, -1044.4076114186778, -187500.02235174447, -187500.02235174447, -187500.02235174447, -187500.02235174447, -187500.02235174447, -187500.02235174447, -187500.02235174447, 0.518, -0.258, 0.84, 192.0, 16.0, 48.0, 247.0, 240.0, 26.0, 64.0, 0.0, 0.0, 0.0, 1.716196204300526E9, 0.0, 2024-05-20 12:10:04.300
103.0, -1096.3083620439008, -187500.02235174447, -187500.02235174447, -187500.02235174447, -187500.02235174447, -187500.02235174447, -187500.02235174447, -187500.02235174447, 0.518, -0.258, 0.84, 192.0, 0.0, 0.0, 0.0, 0.0, 0.0, 0.0, 0.0, 0.0, 0.0, 1.7161962043045373E9, 0.0, 2024-05-20 12:10:04.304
104.0, -1128.9195572041938, -187500.02235174447, -187500.02235174447, -187500.02235174447, -187500.02235174447, -187500.02235174447, -187500.02235174447, -187500.02235174447, 0.518, -0.258, 0.84, 192.0, 0.0, 0.0, 0.0, 0.0, 0.0, 0.0, 0.0, 0.0, 0.0, 1.7161962043095756E9, 0.0, 2024-05-20 12:10:04.309
105.0, -1098.6776469561635, -187500.02235174447, -187500.02235174447, -187500.02235174447, -187500.02235174447, -187500.02235174447, -187500.02235174447, -187500.02235174447, 0.518, -0.258, 0.84, 192.0, 0.0, 0.0, 0.0, 0.0, 0.0, 0.0, 0.0, 0.0, 0.0, 1.7161962043136191E9, 0.0, 2024-05-20 12:10:04.313
106.0, -1034.9304717696275, -187500.02235174447, -187500.02235174447, -187500.02235174447, -187500.02235174447, -187500.02235174447, -187500.02235174447, -187500.02235174447, 0.518, -0.258, 0.84, 192.0, 0.0, 0.0, 0.0, 0.0, 0.0, 0.0, 0.0, 0.0, 0.0, 1.716196204317648E9, 0.0, 2024-05-20 12:10:04.317
107.0, -1028.4261141331333, -187500.02235174447, -187500.02235174447, -187500.02235174447, -187500.02235174447, -187500.02235174447, -187500.02235174447, -187500.02235174447, 0.518, -0.258, 0.84, 192.0, 0.0, 0.0, 0.0, 0.0, 0.0, 0.0, 0.0, 0.0, 0.0, 1.7161962043206005E9, 0.0, 2024-05-20 12:10:04.320
108.0, -1109.7641122059956, -187500.02235174447, -187500.02235174447, -187500.02235174447, -187500.02235174447, -187500.02235174447, -187500.02235174447, -187500.02235174447, 0.518, -0.258, 0.84, 192.0, 0.0, 0.0, 0.0, 0.0, 0.0, 0.0, 0.0, 0.0, 0.0, 1.716196204324637E9, 0.0, 2024-05-20 12:10:04.324
109.0, -1082.137356059236, -187500.02235174447, -187500.02235174447, -187500.02235174447, -187500.02235174447, -187500.02235174447, -187500.02235174447, -187500.02235174447, 0.518, -0.258, 0.84, 192.0, 0.0, 0.0, 0.0, 0.0, 0.0, 0.0, 0.0, 0.0, 0.0, 1.7161962043286486E9, 0.0, 2024-05-20 12:10:04.328
110.0, -1082.5843909483422, -187500.02235174447, -187500.02235174447, -187500.02235174447, -187500.02235174447, -187500.02235174447, -187500.02235174447, -187500.02235174447, 0.518, -0.258, 0.84, 192.0, 0.0, 0.0, 0.0, 0.0, 0.0, 0.0, 0.0, 0.0, 0.0, 1.716196204332643E9, 0.0, 2024-05-20 12:10:04.332
111.0, -1099.2587923120013, -187500.02235174447, -187500.02235174447, -187500.02235174447, -187500.02235174447, -187500.02235174447, -187500.02235174447, -187500.02235174447, 0.518, -0.258, 0.84, 192.0, 0.0, 0.0, 0.0, 0.0, 0.0, 0.0, 0.0, 0.0, 0.0, 1.7161962043366387E9, 0.0, 2024-05-20 12:10:04.336
112.0, -1065.2617889954793, -187500.02235174447, -187500.02235174447, -187500.02235174447, -187500.02235174447, -187500.02235174447, -187500.02235174447, -187500.02235174447, 0.52, -0.254, 0.846, 192.0, 16.0, 64.0, 248.0, 16.0, 26.0, 112.0, 0.0, 0.0, 0.0, 1.716196204341663E9, 0.0, 2024-05-20 12:10:04.341
113.0, -1101.0692836128812, -187500.02235174447, -187500.02235174447, -187500.02235174447, -187500.02235174447, -187500.02235174447, -187500.02235174447, -187500.02235174447, 0.52, -0.254, 0.846, 192.0, 0.0, 0.0, 0.0, 0.0, 0.0, 0.0, 0.0, 0.0, 0.0, 1.7161962043457043E9, 0.0, 2024-05-20 12:10:04.345
114.0, -1115.8437866978393, -187500.02235174447, -187500.02235174447, -187500.02235174447, -187500.02235174447, -187500.02235174447, -187500.02235174447, -187500.02235174447, 0.52, -0.254, 0.846, 192.0, 0.0, 0.0, 0.0, 0.0, 0.0, 0.0, 0.0, 0.0, 0.0, 1.7161962043487356E9, 0.0, 2024-05-20 12:10:04.348
115.0, -1121.0517431559258, -187500.02235174447, -187500.02235174447, -187500.02235174447, -187500.02235174447, -187500.02235174447, -187500.02235174447, -187500.02235174447, 0.52, -0.254, 0.846, 192.0, 0.0, 0.0, 0.0, 0.0, 0.0, 0.0, 0.0, 0.0, 0.0, 1.7161962043527045E9, 0.0, 2024-05-20 12:10:04.352
116.0, -1062.110193027281, -187500.02235174447, -187500.02235174447, -187500.02235174447, -187500.02235174447, -187500.02235174447, -187500.02235174447, -187500.02235174447, 0.52, -0.254, 0.846, 192.0, 0.0, 0.0, 0.0, 0.0, 0.0, 0.0, 0.0, 0.0, 0.0, 1.7161962043567524E9, 0.0, 2024-05-20 12:10:04.356
117.0, -1044.3852596742224, -187500.02235174447, -187500.02235174447, -187500.02235174447, -187500.02235174447, -187500.02235174447, -187500.02235174447, -187500.02235174447, 0.52, -0.254, 0.846, 192.0, 0.0, 0.0, 0.0, 0.0, 0.0, 0.0, 0.0, 0.0, 0.0, 1.7161962043607807E9, 0.0, 2024-05-20 12:10:04.360
118.0, -1085.8924491277278, -187500.02235174447, -187500.02235174447, -187500.02235174447, -187500.02235174447, -187500.02235174447, -187500.02235174447, -187500.02235174447, 0.52, -0.254, 0.846, 192.0, 0.0, 0.0, 0.0, 0.0, 0.0, 0.0, 0.0, 0.0, 0.0, 1.7161962043647747E9, 0.0, 2024-05-20 12:10:04.364
119.0, -1107.7524552050181, -187500.02235174447, -187500.02235174447, -187500.02235174447, -187500.02235174447, -187500.02235174447, -187500.02235174447, -187500.02235174447, 0.52, -0.254, 0.846, 192.0, 0.0, 0.0, 0.0, 0.0, 0.0, 0.0, 0.0, 0.0, 0.0, 1.7161962043687773E9, 0.0, 2024-05-20 12:10:04.368
120.0, -1100.97987663506, -187500.02235174447, -187500.02235174447, -187500.02235174447, -187500.02235174447, -187500.02235174447, -187500.02235174447, -187500.02235174447, 0.52, -0.254, 0.846, 192.0, 0.0, 0.0, 0.0, 0.0, 0.0, 0.0, 0.0, 0.0, 0.0, 1.7161962043738308E9, 0.0, 2024-05-20 12:10:04.373
121.0, -1070.5144489424765, -187500.02235174447, -187500.02235174447, -187500.02235174447, -187500.02235174447, -187500.02235174447, -187500.02235174447, -187500.02235174447, 0.52, -0.254, 0.846, 192.0, 0.0, 0.0, 0.0, 0.0, 0.0, 0.0, 0.0, 0.0, 0.0, 1.7161962043767989E9, 0.0, 2024-05-20 12:10:04.376
122.0, -1080.2151060360798, -187500.02235174447, -187500.02235174447, -187500.02235174447, -187500.02235174447, -187500.02235174447, -187500.02235174447, -187500.02235174447, 0.514, -0.25, 0.84, 192.0, 16.0, 16.0, 248.0, 48.0, 26.0, 64.0, 0.0, 0.0, 0.0, 1.7161962043808289E9, 0.0, 2024-05-20 12:10:04.380
123.0, -1081.6456176812194, -187500.02235174447, -187500.02235174447, -187500.02235174447, -187500.02235174447, -187500.02235174447, -187500.02235174447, -187500.02235174447, 0.514, -0.25, 0.84, 192.0, 0.0, 0.0, 0.0, 0.0, 0.0, 0.0, 0.0, 0.0, 0.0, 1.7161962043848464E9, 0.0, 2024-05-20 12:10:04.384
124.0, -1098.4094260226996, -187500.02235174447, -187500.02235174447, -187500.02235174447, -187500.02235174447, -187500.02235174447, -187500.02235174447, -187500.02235174447, 0.514, -0.25, 0.84, 192.0, 0.0, 0.0, 0.0, 0.0, 0.0, 0.0, 0.0, 0.0, 0.0, 1.7161962043888593E9, 0.0, 2024-05-20 12:10:04.388
125.0, -1093.0897108423367, -187500.02235174447, -187500.02235174447, -187500.02235174447, -187500.02235174447, -187500.02235174447, -187500.02235174447, -187500.02235174447, 0.514, -0.25, 0.84, 192.0, 0.0, 0.0, 0.0, 0.0, 0.0, 0.0, 0.0, 0.0, 0.0, 1.7161962043929057E9, 0.0, 2024-05-20 12:10:04.392
126.0, -1042.9770997735382, -187500.02235174447, -187500.02235174447, -187500.02235174447, -187500.02235174447, -187500.02235174447, -187500.02235174447, -187500.02235174447, 0.514, -0.25, 0.84, 192.0, 0.0, 0.0, 0.0, 0.0, 0.0, 0.0, 0.0, 0.0, 0.0, 1.7161962043969681E9, 0.0, 2024-05-20 12:10:04.396
127.0, -992.1715846266252, -187500.02235174447, -187500.02235174447, -187500.02235174447, -187500.02235174447, -187500.02235174447, -187500.02235174447, -187500.02235174447, 0.514, -0.25, 0.84, 192.0, 0.0, 0.0, 0.0, 0.0, 0.0, 0.0, 0.0, 0.0, 0.0, 1.716196204401909E9, 0.0, 2024-05-20 12:10:04.401
128.0, -1095.5036992435098, -187500.02235174447, -187500.02235174447, -187500.02235174447, -187500.02235174447, -187500.02235174447, -187500.02235174447, -187500.02235174447, 0.514, -0.25, 0.84, 192.0, 0.0, 0.0, 0.0, 0.0, 0.0, 0.0, 0.0, 0.0, 0.0, 1.7161962044053128E9, 0.0, 2024-05-20 12:10:04.405
129.0, -1092.9108968866942, -187500.02235174447, -187500.02235174447, -187500.02235174447, -187500.02235174447, -187500.02235174447, -187500.02235174447, -187500.02235174447, 0.514, -0.25, 0.84, 192.0, 0.0, 0.0, 0.0, 0.0, 0.0, 0.0, 0.0, 0.0, 0.0, 1.716196204407961E9, 0.0, 2024-05-20 12:10:04.407
130.0, -1084.1043095713032, -187500.02235174447, -187500.02235174447, -187500.02235174447, -187500.02235174447, -187500.02235174447, -187500.02235174447, -187500.02235174447, 0.514, -0.25, 0.84, 192.0, 0.0, 0.0, 0.0, 0.0, 0.0, 0.0, 0.0, 0.0, 0.0, 1.7161962044129312E9, 0.0, 2024-05-20 12:10:04.412
131.0, -1063.1383732722252, -187500.02235174447, -187500.02235174447, -187500.02235174447, -187500.02235174447, -187500.02235174447, -187500.02235174447, -187500.02235174447, 0.518, -0.252, 0.834, 192.0, 16.0, 48.0, 248.0, 32.0, 26.0, 16.0, 0.0, 0.0, 0.0, 1.7161962044169507E9, 0.0, 2024-05-20 12:10:04.416
132.0, -1036.8974252816947, -187500.02235174447, -187500.02235174447, -187500.02235174447, -187500.02235174447, -187500.02235174447, -187500.02235174447, -187500.02235174447, 0.518, -0.252, 0.834, 192.0, 0.0, 0.0, 0.0, 0.0, 0.0, 0.0, 0.0, 0.0, 0.0, 1.7161962044209733E9, 0.0, 2024-05-20 12:10:04.420
133.0, -1070.4697454535658, -187500.02235174447, -187500.02235174447, -187500.02235174447, -187500.02235174447, -187500.02235174447, -187500.02235174447, -187500.02235174447, 0.518, -0.252, 0.834, 192.0, 0.0, 0.0, 0.0, 0.0, 0.0, 0.0, 0.0, 0.0, 0.0, 1.7161962044249673E9, 0.0, 2024-05-20 12:10:04.424
134.0, -1069.463916953077, -187500.02235174447, -187500.02235174447, -187500.02235174447, -187500.02235174447, -187500.02235174447, -187500.02235174447, -187500.02235174447, 0.518, -0.252, 0.834, 192.0, 0.0, 0.0, 0.0, 0.0, 0.0, 0.0, 0.0, 0.0, 0.0, 1.716196204429037E9, 0.0, 2024-05-20 12:10:04.429
