%OpenBCI Raw EXG Data
%Number of channels = 8
%Sample Rate = 250 Hz
%Board = OpenBCI_GUI$BoardCytonSerial
Sample Index, EXG Channel 0, EXG Channel 1, EXG Channel 2, EXG Channel 3, EXG Channel 4, EXG Channel 5, EXG Channel 6, EXG Channel 7, Accel Channel 0, Accel Channel 1, Accel Channel 2, Other, Other, Other, Other, Other, Other, Other, Analog Channel 0, Analog Channel 1, Analog Channel 2, Timestamp, Other, Timestamp (Formatted)
186.0, -2659.611720992532, -187500.02235174447, -187500.02235174447, -187500.02235174447, -187500.02235174447, -187500.02235174447, -187500.02235174447, -187500.02235174447, 0.0, 0.0, 0.0, 192.0, 0.0, 0.0, 0.0, 0.0, 0.0, 0.0, 0.0, 0.0, 0.0, 1.7161973597678337E9, 0.0, 2024-05-20 12:29:19.767
187.0, -2656.840104680074, -187500.02235174447, -187500.02235174447, -187500.02235174447, -187500.02235174447, -187500.02235174447, -187500.02235174447, -187500.02235174447, 0.0, 0.0, 0.0, 192.0, 0.0, 0.0, 0.0, 0.0, 0.0, 0.0, 0.0, 0.0, 0.0, 1.7161973597678747E9, 0.0, 2024-05-20 12:29:19.767
188.0, -2661.0869361265823, -187500.02235174447, -187500.02235174447, -187500.02235174447, -187500.02235174447, -187500.02235174447, -187500.02235174447, -187500.02235174447, 0.0, 0.0, 0.0, 192.0, 0.0, 0.0, 0.0, 0.0, 0.0, 0.0, 0.0, 0.0, 0.0, 1.7161973597679045E9, 0.0, 2024-05-20 12:29:19.767
0.0, -2222.6574686357344, -187500.02235174447, -187500.02235174447, -187500.02235174447, -187500.02235174447, -187500.02235174447, -187500.02235174447, -187500.02235174447, 0.31, 0.076, 0.378, 192.0, 9.0, 176.0, 2.0, 96.0, 11.0, 208.0, 0.0, 0.0, 0.0, 1.7161973598547003E9, 0.0, 2024-05-20 12:29:19.854
1.0, -2214.8120063319216, -187500.02235174447, -187500.02235174447, -187500.02235174447, -187500.02235174447, -187500.02235174447, -187500.02235174447, -187500.02235174447, 0.31, 0.076, 0.378, 192.0, 0.0, 0.0, 0.0, 0.0, 0.0, 0.0, 0.0, 0.0, 0.0, 1.7161973598577003E9, 0.0, 2024-05-20 12:29:19.857
2.0, -2212.398017930748, -187500.02235174447, -187500.02235174447, -187500.02235174447, -187500.02235174447, -187500.02235174447, -187500.02235174447, -187500.02235174447, 0.31, 0.076, 0.378, 192.0, 0.0, 0.0, 0.0, 0.0, 0.0, 0.0, 0.0, 0.0, 0.0, 1.716197359861704E9, 0.0, 2024-05-20 12:29:19.861
3.0, -2219.0141342895195, -187500.02235174447, -187500.02235174447, -187500.02235174447, -187500.02235174447, -187500.02235174447, -187500.02235174447, -187500.02235174447, 0.31, 0.076, 0.378, 192.0, 0.0, 0.0, 0.0, 0.0, 0.0, 0.0, 0.0, 0.0, 0.0, 1.716197359865739E9, 0.0, 2024-05-20 12:29:19.865
4.0, -2225.429084948192, -187500.02235174447, -187500.02235174447, -187500.02235174447, -187500.02235174447, -187500.02235174447, -187500.02235174447, -187500.02235174447, 0.31, 0.076, 0.378, 192.0, 0.0, 0.0, 0.0, 0.0, 0.0, 0.0, 0.0, 0.0, 0.0, 1.716197359869764E9, 0.0, 2024-05-20 12:29:19.869
5.0, -2222.0316197909856, -187500.02235174447, -187500.02235174447, -187500.02235174447, -187500.02235174447, -187500.02235174447, -187500.02235174447, -187500.02235174447, 0.31, 0.076, 0.378, 192.0, 0.0, 0.0, 0.0, 0.0, 0.0, 0.0, 0.0, 0.0, 0.0, 1.7161973598727436E9, 0.0, 2024-05-20 12:29:19.872
6.0, -2211.079265007885, -187500.02235174447, -187500.02235174447, -187500.02235174447, -187500.02235174447, -187500.02235174447, -187500.02235174447, -187500.02235174447, 0.31, 0.076, 0.378, 192.0, 0.0, 0.0, 0.0, 0.0, 0.0, 0.0, 0.0, 0.0, 0.0, 1.71619735987678E9, 0.0, 2024-05-20 12:29:19.876
7.0, -2210.833395818877, -187500.02235174447, -187500.02235174447, -187500.02235174447, -187500.02235174447, -187500.02235174447, -187500.02235174447, -187500.02235174447, 0.468, 0.114, 0.5740000000000001, 192.0, 14.0, 160.0, 3.0, 144.0, 17.0, 240.0, 0.0, 0.0, 0.0, 1.7161973598797855E9, 0.0, 2024-05-20 12:29:19.879
8.0, -2216.1531109992397, -187500.02235174447, -187500.02235174447, -187500.02235174447, -187500.02235174447, -187500.02235174447, -187500.02235174447, -187500.02235174447, 0.468, 0.114, 0.5740000000000001, 192.0, 0.0, 0.0, 0.0, 0.0, 0.0, 0.0, 0.0, 0.0, 0.0, 1.7161973598838453E9, 0.0, 2024-05-20 12:29:19.883
9.0, -2227.4854454380807, -187500.02235174447, -187500.02235174447, -187500.02235174447, -187500.02235174447, -187500.02235174447, -187500.02235174447, -187500.02235174447, 0.468, 0.114, 0.5740000000000001, 192.0, 0.0, 0.0, 0.0, 0.0, 0.0, 0.0, 0.0, 0.0, 0.0, 1.7161973598878455E9, 0.0, 2024-05-20 12:29:19.887
10.0, -2225.026753547997, -187500.02235174447, -187500.02235174447, -187500.02235174447, -187500.02235174447, -187500.02235174447, -187500.02235174447, -187500.02235174447, 0.468, 0.114, 0.5740000000000001, 192.0, 0.0, 0.0, 0.0, 0.0, 0.0, 0.0, 0.0, 0.0, 0.0, 1.716197359891848E9, 0.0, 2024-05-20 12:29:19.891
11.0, -2210.2969539519495, -187500.02235174447, -187500.02235174447, -187500.02235174447, -187500.02235174447, -187500.02235174447, -187500.02235174447, -187500.02235174447, 0.468, 0.114, 0.5740000000000001, 192.0, 0.0, 0.0, 0.0, 0.0, 0.0, 0.0, 0.0, 0.0, 0.0, 1.7161973598968437E9, 0.0, 2024-05-20 12:29:19.896
12.0, -2212.800349330944, -187500.02235174447, -187500.02235174447, -187500.02235174447, -187500.02235174447, -187500.02235174447, -187500.02235174447, -187500.02235174447, 0.468, 0.114, 0.5740000000000001, 192.0, 0.0, 0.0, 0.0, 0.0, 0.0, 0.0, 0.0, 0.0, 0.0, 1.7161973599008832E9, 0.0, 2024-05-20 12:29:19.900
13.0, -2217.62832613329, -187500.02235174447, -187500.02235174447, -187500.02235174447, -187500.02235174447, -187500.02235174447, -187500.02235174447, -187500.02235174447, 0.468, 0.114, 0.5740000000000001, 192.0, 0.0, 0.0, 0.0, 0.0, 0.0, 0.0, 0.0, 0.0, 0.0, 1.716197359904886E9, 0.0, 2024-05-20 12:29:19.904
14.0, -2223.2609657360276, -187500.02235174447, -187500.02235174447, -187500.02235174447, -187500.02235174447, -187500.02235174447, -187500.02235174447, -187500.02235174447, 0.468, 0.114, 0.5740000000000001, 192.0, 0.0, 0.0, 0.0, 0.0, 0.0, 0.0, 0.0, 0.0, 0.0, 1.7161973599078991E9, 0.0, 2024-05-20 12:29:19.907
15.0, -2224.7138291256224, -187500.02235174447, -187500.02235174447, -187500.02235174447, -187500.02235174447, -187500.02235174447, -187500.02235174447, -187500.02235174447, 0.468, 0.114, 0.5740000000000001, 192.0, 0.0, 0.0, 0.0, 0.0, 0.0, 0.0, 0.0, 0.0, 0.0, 1.7161973599129193E9, 0.0, 2024-05-20 12:29:19.912
16.0, -2219.237651734072, -187500.02235174447, -187500.02235174447, -187500.02235174447, -187500.02235174447, -187500.02235174447, -187500.02235174447, -187500.02235174447, 0.546, 0.134, 0.672, 192.0, 17.0, 16.0, 4.0, 48.0, 21.0, 0.0, 0.0, 0.0, 0.0, 1.7161973599169707E9, 0.0, 2024-05-20 12:29:19.916
17.0, -2221.5845849018797, -187500.02235174447, -187500.02235174447, -187500.02235174447, -187500.02235174447, -187500.02235174447, -187500.02235174447, -187500.02235174447, 0.546, 0.134, 0.672, 192.0, 0.0, 0.0, 0.0, 0.0, 0.0, 0.0, 0.0, 0.0, 0.0, 1.716197359919924E9, 0.0, 2024-05-20 12:29:19.919
18.0, -2224.0656285364184, -187500.02235174447, -187500.02235174447, -187500.02235174447, -187500.02235174447, -187500.02235174447, -187500.02235174447, -187500.02235174447, 0.546, 0.134, 0.672, 192.0, 0.0, 0.0, 0.0, 0.0, 0.0, 0.0, 0.0, 0.0, 0.0, 1.7161973599250045E9, 0.0, 2024-05-20 12:29:19.925
19.0, -2227.664259393723, -187500.02235174447, -187500.02235174447, -187500.02235174447, -187500.02235174447, -187500.02235174447, -187500.02235174447, -187500.02235174447, 0.546, 0.134, 0.672, 192.0, 0.0, 0.0, 0.0, 0.0, 0.0, 0.0, 0.0, 0.0, 0.0, 1.7161973599299948E9, 0.0, 2024-05-20 12:29:19.929
20.0, -2229.63121290579, -187500.02235174447, -187500.02235174447, -187500.02235174447, -187500.02235174447, -187500.02235174447, -187500.02235174447, -187500.02235174447, 0.546, 0.134, 0.672, 192.0, 0.0, 0.0, 0.0, 0.0, 0.0, 0.0, 0.0, 0.0, 0.0, 1.7161973599340076E9, 0.0, 2024-05-20 12:29:19.934
21.0, -2222.5904134023685, -187500.02235174447, -187500.02235174447, -187500.02235174447, -187500.02235174447, -187500.02235174447, -187500.02235174447, -187500.02235174447, 0.546, 0.134, 0.672, 192.0, 0.0, 0.0, 0.0, 0.0, 0.0, 0.0, 0.0, 0.0, 0.0, 1.716197359938025E9, 0.0, 2024-05-20 12:29:19.938
22.0, -2217.270698222005, -187500.02235174447, -187500.02235174447, -187500.02235174447, -187500.02235174447, -187500.02235174447, -187500.02235174447, -187500.02235174447, 0.546, 0.134, 0.672, 192.0, 0.0, 0.0, 0.0, 0.0, 0.0, 0.0, 0.0, 0.0, 0.0, 1.7161973599410524E9, 0.0, 2024-05-20 12:29:19.941
23.0, -2216.1307592547846, -187500.02235174447, -187500.02235174447, -187500.02235174447, -187500.02235174447, -187500.02235174447, -187500.02235174447, -187500.02235174447, 0.546, 0.134, 0.672, 192.0, 0.0, 0.0, 0.0, 0.0, 0.0, 0.0, 0.0, 0.0, 0.0, 1.7161973599441392E9, 0.0, 2024-05-20 12:29:19.944
24.0, -2213.96264004262, -187500.02235174447, -187500.02235174447, -187500.02235174447, -187500.02235174447, -187500.02235174447, -187500.02235174447, -187500.02235174447, 0.546, 0.134, 0.672, 192.0, 0.0, 0.0, 0.0, 0.0, 0.0, 0.0, 0.0, 0.0, 0.0, 1.7161973599480472E9, 0.0, 2024-05-20 12:29:19.948
25.0, -2210.0063812740304, -187500.02235174447, -187500.02235174447, -187500.02235174447, -187500.02235174447, -187500.02235174447, -187500.02235174447, -187500.02235174447, 0.546, 0.134, 0.672, 192.0, 0.0, 0.0, 0.0, 0.0, 0.0, 0.0, 0.0, 0.0, 0.0, 1.716197359952088E9, 0.0, 2024-05-20 12:29:19.952
26.0, -2201.378607914282, -187500.02235174447, -187500.02235174447, -187500.02235174447, -187500.02235174447, -187500.02235174447, -187500.02235174447, -187500.02235174447, 0.58, 0.15, 0.726, 192.0, 18.0, 32.0, 4.0, 176.0, 22.0, 176.0, 0.0, 0.0, 0.0, 1.7161973599580877E9, 0.0, 2024-05-20 12:29:19.958
27.0, -2198.3611224128153, -187500.02235174447, -187500.02235174447, -187500.02235174447, -187500.02235174447, -187500.02235174447, -187500.02235174447, -187500.02235174447, 0.58, 0.15, 0.726, 192.0, 0.0, 0.0, 0.0, 0.0, 0.0, 0.0, 0.0, 0.0, 0.0, 1.7161973599611232E9, 0.0, 2024-05-20 12:29:19.961
28.0, -2208.732331840078, -187500.02235174447, -187500.02235174447, -187500.02235174447, -187500.02235174447, -187500.02235174447, -187500.02235174447, -187500.02235174447, 0.58, 0.15, 0.726, 192.0, 0.0, 0.0, 0.0, 0.0, 0.0, 0.0, 0.0, 0.0, 0.0, 1.7161973599651237E9, 0.0, 2024-05-20 12:29:19.965
29.0, -2224.803236103444, -187500.02235174447, -187500.02235174447, -187500.02235174447, -187500.02235174447, -187500.02235174447, -187500.02235174447, -187500.02235174447, 0.58, 0.15, 0.726, 192.0, 0.0, 0.0, 0.0, 0.0, 0.0, 0.0, 0.0, 0.0, 0.0, 1.716197359968107E9, 0.0, 2024-05-20 12:29:19.968
30.0, -2225.049105292452, -187500.02235174447, -187500.02235174447, -187500.02235174447, -187500.02235174447, -187500.02235174447, -187500.02235174447, -187500.02235174447, 0.58, 0.15, 0.726, 192.0, 0.0, 0.0, 0.0, 0.0, 0.0, 0.0, 0.0, 0.0, 0.0, 1.7161973599721415E9, 0.0, 2024-05-20 12:29:19.972
31.0, -2220.019962790008, -187500.02235174447, -187500.02235174447, -187500.02235174447, -187500.02235174447, -187500.02235174447, -187500.02235174447, -187500.02235174447, 0.58, 0.15, 0.726, 192.0, 0.0, 0.0, 0.0, 0.0, 0.0, 0.0, 0.0, 0.0, 0.0, 1.716197359976174E9, 0.0, 2024-05-20 12:29:19.976
32.0, -2223.886814580776, -187500.02235174447, -187500.02235174447, -187500.02235174447, -187500.02235174447, -187500.02235174447, -187500.02235174447, -187500.02235174447, 0.58, 0.15, 0.726, 192.0, 0.0, 0.0, 0.0, 0.0, 0.0, 0.0, 0.0, 0.0, 0.0, 1.7161973599801924E9, 0.0, 2024-05-20 12:29:19.980
33.0, -2229.541805927969, -187500.02235174447, -187500.02235174447, -187500.02235174447, -187500.02235174447, -187500.02235174447, -187500.02235174447, -187500.02235174447, 0.58, 0.15, 0.726, 192.0, 0.0, 0.0, 0.0, 0.0, 0.0, 0.0, 0.0, 0.0, 0.0, 1.7161973599852357E9, 0.0, 2024-05-20 12:29:19.985
34.0, -2230.34646872836, -187500.02235174447, -187500.02235174447, -187500.02235174447, -187500.02235174447, -187500.02235174447, -187500.02235174447, -187500.02235174447, 0.58, 0.15, 0.726, 192.0, 0.0, 0.0, 0.0, 0.0, 0.0, 0.0, 0.0, 0.0, 0.0, 1.7161973599882336E9, 0.0, 2024-05-20 12:29:19.988
35.0, -2231.732276884589, -187500.02235174447, -187500.02235174447, -187500.02235174447, -187500.02235174447, -187500.02235174447, -187500.02235174447, -187500.02235174447, 0.58, 0.15, 0.726, 192.0, 0.0, 0.0, 0.0, 0.0, 0.0, 0.0, 0.0, 0.0, 0.0, 1.7161973599912417E9, 0.0, 2024-05-20 12:29:19.991
36.0, -2225.2279192480946, -187500.02235174447, -187500.02235174447, -187500.02235174447, -187500.02235174447, -187500.02235174447, -187500.02235174447, -187500.02235174447, 0.598, 0.156, 0.752, 192.0, 18.0, 176.0, 4.0, 224.0, 23.0, 128.0, 0.0, 0.0, 0.0, 1.716197359996258E9, 0.0, 2024-05-20 12:29:19.996
37.0, -2227.8877768382763, -187500.02235174447, -187500.02235174447, -187500.02235174447, -187500.02235174447, -187500.02235174447, -187500.02235174447, -187500.02235174447, 0.598, 0.156, 0.752, 192.0, 0.0, 0.0, 0.0, 0.0, 0.0, 0.0, 0.0, 0.0, 0.0, 1.7161973600002728E9, 0.0, 2024-05-20 12:29:20.000
38.0, -2231.3299454843936, -187500.02235174447, -187500.02235174447, -187500.02235174447, -187500.02235174447, -187500.02235174447, -187500.02235174447, -187500.02235174447, 0.598, 0.156, 0.752, 192.0, 0.0, 0.0, 0.0, 0.0, 0.0, 0.0, 0.0, 0.0, 0.0, 1.7161973600042849E9, 0.0, 2024-05-20 12:29:20.004
39.0, -2234.0792100523963, -187500.02235174447, -187500.02235174447, -187500.02235174447, -187500.02235174447, -187500.02235174447, -187500.02235174447, -187500.02235174447, 0.598, 0.156, 0.752, 192.0, 0.0, 0.0, 0.0, 0.0, 0.0, 0.0, 0.0, 0.0, 0.0, 1.7161973600083003E9, 0.0, 2024-05-20 12:29:20.008
40.0, -2237.2755095095054, -187500.02235174447, -187500.02235174447, -187500.02235174447, -187500.02235174447, -187500.02235174447, -187500.02235174447, -187500.02235174447, 0.598, 0.156, 0.752, 192.0, 0.0, 0.0, 0.0, 0.0, 0.0, 0.0, 0.0, 0.0, 0.0, 1.7161973600123188E9, 0.0, 2024-05-20 12:29:20.012
41.0, -2223.5962419028574, -187500.02235174447, -187500.02235174447, -187500.02235174447, -187500.02235174447, -187500.02235174447, -187500.02235174447, -187500.02235174447, 0.598, 0.156, 0.752, 192.0, 0.0, 0.0, 0.0, 0.0, 0.0, 0.0, 0.0, 0.0, 0.0, 1.7161973600163226E9, 0.0, 2024-05-20 12:29:20.016
42.0, -2220.1987767456503, -187500.02235174447, -187500.02235174447, -187500.02235174447, -187500.02235174447, -187500.02235174447, -187500.02235174447, -187500.02235174447, 0.598, 0.156, 0.752, 192.0, 0.0, 0.0, 0.0, 0.0, 0.0, 0.0, 0.0, 0.0, 0.0, 1.7161973600213442E9, 0.0, 2024-05-20 12:29:20.021
43.0, -2226.367858215315, -187500.02235174447, -187500.02235174447, -187500.02235174447, -187500.02235174447, -187500.02235174447, -187500.02235174447, -187500.02235174447, 0.598, 0.156, 0.752, 192.0, 0.0, 0.0, 0.0, 0.0, 0.0, 0.0, 0.0, 0.0, 0.0, 1.7161973600244E9, 0.0, 2024-05-20 12:29:20.024
44.0, -2231.8440356068654, -187500.02235174447, -187500.02235174447, -187500.02235174447, -187500.02235174447, -187500.02235174447, -187500.02235174447, -187500.02235174447, 0.598, 0.156, 0.752, 192.0, 0.0, 0.0, 0.0, 0.0, 0.0, 0.0, 0.0, 0.0, 0.0, 1.7161973600293696E9, 0.0, 2024-05-20 12:29:20.029
45.0, -2229.7429716280667, -187500.02235174447, -187500.02235174447, -187500.02235174447, -187500.02235174447, -187500.02235174447, -187500.02235174447, -187500.02235174447, 0.598, 0.156, 0.752, 192.0, 0.0, 0.0, 0.0, 0.0, 0.0, 0.0, 0.0, 0.0, 0.0, 1.7161973600353944E9, 0.0, 2024-05-20 12:29:20.035
46.0, -2227.150169271251, -187500.02235174447, -187500.02235174447, -187500.02235174447, -187500.02235174447, -187500.02235174447, -187500.02235174447, -187500.02235174447, 0.604, 0.154, 0.766, 192.0, 18.0, 224.0, 4.0, 208.0, 23.0, 240.0, 0.0, 0.0, 0.0, 1.7161973600384216E9, 0.0, 2024-05-20 12:29:20.038
47.0, -2224.0432767919633, -187500.02235174447, -187500.02235174447, -187500.02235174447, -187500.02235174447, -187500.02235174447, -187500.02235174447, -187500.02235174447, 0.604, 0.154, 0.766, 192.0, 0.0, 0.0, 0.0, 0.0, 0.0, 0.0, 0.0, 0.0, 0.0, 1.7161973600414157E9, 0.0, 2024-05-20 12:29:20.041
48.0, -2227.3289832268933, -187500.02235174447, -187500.02235174447, -187500.02235174447, -187500.02235174447, -187500.02235174447, -187500.02235174447, -187500.02235174447, 0.604, 0.154, 0.766, 192.0, 0.0, 0.0, 0.0, 0.0, 0.0, 0.0, 0.0, 0.0, 0.0, 1.7161973600454164E9, 0.0, 2024-05-20 12:29:20.045
49.0, -2226.144340770762, -187500.02235174447, -187500.02235174447, -187500.02235174447, -187500.02235174447, -187500.02235174447, -187500.02235174447, -187500.02235174447, 0.604, 0.154, 0.766, 192.0, 0.0, 0.0, 0.0, 0.0, 0.0, 0.0, 0.0, 0.0, 0.0, 1.7161973600484378E9, 0.0, 2024-05-20 12:29:20.048
50.0, -2218.0083057890306, -187500.02235174447, -187500.02235174447, -187500.02235174447, -187500.02235174447, -187500.02235174447, -187500.02235174447, -187500.02235174447, 0.604, 0.154, 0.766, 192.0, 0.0, 0.0, 0.0, 0.0, 0.0, 0.0, 0.0, 0.0, 0.0, 1.7161973600514777E9, 0.0, 2024-05-20 12:29:20.051
51.0, -2215.1919859876616, -187500.02235174447, -187500.02235174447, -187500.02235174447, -187500.02235174447, -187500.02235174447, -187500.02235174447, -187500.02235174447, 0.604, 0.154, 0.766, 192.0, 0.0, 0.0, 0.0, 0.0, 0.0, 0.0, 0.0, 0.0, 0.0, 1.71619736005647E9, 0.0, 2024-05-20 12:29:20.056
52.0, -2216.1307592547846, -187500.02235174447, -187500.02235174447, -187500.02235174447, -187500.02235174447, -187500.02235174447, -187500.02235174447, -187500.02235174447, 0.604, 0.154, 0.766, 192.0, 0.0, 0.0, 0.0, 0.0, 0.0, 0.0, 0.0, 0.0, 0.0, 1.7161973600605624E9, 0.0, 2024-05-20 12:29:20.060
53.0, -2223.082151780385, -187500.02235174447, -187500.02235174447, -187500.02235174447, -187500.02235174447, -187500.02235174447, -187500.02235174447, -187500.02235174447, 0.604, 0.154, 0.766, 192.0, 0.0, 0.0, 0.0, 0.0, 0.0, 0.0, 0.0, 0.0, 0.0, 1.7161973600645924E9, 0.0, 2024-05-20 12:29:20.064
54.0, -2227.373686715804, -187500.02235174447, -187500.02235174447, -187500.02235174447, -187500.02235174447, -187500.02235174447, -187500.02235174447, -187500.02235174447, 0.604, 0.154, 0.766, 192.0, 0.0, 0.0, 0.0, 0.0, 0.0, 0.0, 0.0, 0.0, 0.0, 1.7161973600685356E9, 0.0, 2024-05-20 12:29:20.068
55.0, -2226.2113960041283, -187500.02235174447, -187500.02235174447, -187500.02235174447, -187500.02235174447, -187500.02235174447, -187500.02235174447, -187500.02235174447, 0.612, 0.16, 0.766, 192.0, 19.0, 32.0, 5.0, 0.0, 23.0, 240.0, 0.0, 0.0, 0.0, 1.7161973600715852E9, 0.0, 2024-05-20 12:29:20.071
56.0, -2217.8741953222984, -187500.02235174447, -187500.02235174447, -187500.02235174447, -187500.02235174447, -187500.02235174447, -187500.02235174447, -187500.02235174447, 0.612, 0.16, 0.766, 192.0, 0.0, 0.0, 0.0, 0.0, 0.0, 0.0, 0.0, 0.0, 0.0, 1.7161973600756583E9, 0.0, 2024-05-20 12:29:20.075
57.0, -2217.7177331111116, -187500.02235174447, -187500.02235174447, -187500.02235174447, -187500.02235174447, -187500.02235174447, -187500.02235174447, -187500.02235174447, 0.612, 0.16, 0.766, 192.0, 0.0, 0.0, 0.0, 0.0, 0.0, 0.0, 0.0, 0.0, 0.0, 1.7161973600795329E9, 0.0, 2024-05-20 12:29:20.079
58.0, -2215.303744709938, -187500.02235174447, -187500.02235174447, -187500.02235174447, -187500.02235174447, -187500.02235174447, -187500.02235174447, -187500.02235174447, 0.612, 0.16, 0.766, 192.0, 0.0, 0.0, 0.0, 0.0, 0.0, 0.0, 0.0, 0.0, 0.0, 1.7161973600835893E9, 0.0, 2024-05-20 12:29:20.083
59.0, -2221.0034395460416, -187500.02235174447, -187500.02235174447, -187500.02235174447, -187500.02235174447, -187500.02235174447, -187500.02235174447, -187500.02235174447, 0.612, 0.16, 0.766, 192.0, 0.0, 0.0, 0.0, 0.0, 0.0, 0.0, 0.0, 0.0, 0.0, 1.7161973600886028E9, 0.0, 2024-05-20 12:29:20.088
60.0, -2223.2609657360276, -187500.02235174447, -187500.02235174447, -187500.02235174447, -187500.02235174447, -187500.02235174447, -187500.02235174447, -187500.02235174447, 0.612, 0.16, 0.766, 192.0, 0.0, 0.0, 0.0, 0.0, 0.0, 0.0, 0.0, 0.0, 0.0, 1.716197360092644E9, 0.0, 2024-05-20 12:29:20.092
61.0, -2211.079265007885, -187500.02235174447, -187500.02235174447, -187500.02235174447, -187500.02235174447, -187500.02235174447, -187500.02235174447, -187500.02235174447, 0.612, 0.16, 0.766, 192.0, 0.0, 0.0, 0.0, 0.0, 0.0, 0.0, 0.0, 0.0, 0.0, 1.71619736009596E9, 0.0, 2024-05-20 12:29:20.095
62.0, -2208.6652766067123, -187500.02235174447, -187500.02235174447, -187500.02235174447, -187500.02235174447, -187500.02235174447, -187500.02235174447, -187500.02235174447, 0.612, 0.16, 0.766, 192.0, 0.0, 0.0, 0.0, 0.0, 0.0, 0.0, 0.0, 0.0, 0.0, 1.7161973601006582E9, 0.0, 2024-05-20 12:29:20.100
63.0, -2205.290163193961, -187500.02235174447, -187500.02235174447, -187500.02235174447, -187500.02235174447, -187500.02235174447, -187500.02235174447, -187500.02235174447, 0.612, 0.16, 0.766, 192.0, 0.0, 0.0, 0.0, 0.0, 0.0, 0.0, 0.0, 0.0, 0.0, 1.716197360103649E9, 0.0, 2024-05-20 12:29:20.103
64.0, -2209.4922911515587, -187500.02235174447, -187500.02235174447, -187500.02235174447, -187500.02235174447, -187500.02235174447, -187500.02235174447, -187500.02235174447, 0.612, 0.16, 0.766, 192.0, 0.0, 0.0, 0.0, 0.0, 0.0, 0.0, 0.0, 0.0, 0.0, 1.7161973601096847E9, 0.0, 2024-05-20 12:29:20.109
65.0, -2211.571003385902, -187500.02235174447, -187500.02235174447, -187500.02235174447, -187500.02235174447, -187500.02235174447, -187500.02235174447, -187500.02235174447, 0.61, 0.162, 0.768, 192.0, 19.0, 16.0, 5.0, 16.0, 24.0, 0.0, 0.0, 0.0, 0.0, 1.7161973601137085E9, 0.0, 2024-05-20 12:29:20.113
66.0, -2201.95975327012, -187500.02235174447, -187500.02235174447, -187500.02235174447, -187500.02235174447, -187500.02235174447, -187500.02235174447, -187500.02235174447, 0.61, 0.162, 0.768, 192.0, 0.0, 0.0, 0.0, 0.0, 0.0, 0.0, 0.0, 0.0, 0.0, 1.7161973601166952E9, 0.0, 2024-05-20 12:29:20.116
67.0, -2199.344599168849, -187500.02235174447, -187500.02235174447, -187500.02235174447, -187500.02235174447, -187500.02235174447, -187500.02235174447, -187500.02235174447, 0.61, 0.162, 0.768, 192.0, 0.0, 0.0, 0.0, 0.0, 0.0, 0.0, 0.0, 0.0, 0.0, 1.7161973601207144E9, 0.0, 2024-05-20 12:29:20.120
68.0, -2201.24449744755, -187500.02235174447, -187500.02235174447, -187500.02235174447, -187500.02235174447, -187500.02235174447, -187500.02235174447, -187500.02235174447, 0.61, 0.162, 0.768, 192.0, 0.0, 0.0, 0.0, 0.0, 0.0, 0.0, 0.0, 0.0, 0.0, 1.716197360123725E9, 0.0, 2024-05-20 12:29:20.123
69.0, -2208.598221373346, -187500.02235174447, -187500.02235174447, -187500.02235174447, -187500.02235174447, -187500.02235174447, -187500.02235174447, -187500.02235174447, 0.61, 0.162, 0.768, 192.0, 0.0, 0.0, 0.0, 0.0, 0.0, 0.0, 0.0, 0.0, 0.0, 1.71619736012776E9, 0.0, 2024-05-20 12:29:20.127
70.0, -2202.317381181405, -187500.02235174447, -187500.02235174447, -187500.02235174447, -187500.02235174447, -187500.02235174447, -187500.02235174447, -187500.02235174447, 0.61, 0.162, 0.768, 192.0, 0.0, 0.0, 0.0, 0.0, 0.0, 0.0, 0.0, 0.0, 0.0, 1.7161973601317973E9, 0.0, 2024-05-20 12:29:20.131
71.0, -2196.416520645204, -187500.02235174447, -187500.02235174447, -187500.02235174447, -187500.02235174447, -187500.02235174447, -187500.02235174447, -187500.02235174447, 0.61, 0.162, 0.768, 192.0, 0.0, 0.0, 0.0, 0.0, 0.0, 0.0, 0.0, 0.0, 0.0, 1.7161973601358013E9, 0.0, 2024-05-20 12:29:20.135
72.0, -2185.5982763288353, -187500.02235174447, -187500.02235174447, -187500.02235174447, -187500.02235174447, -187500.02235174447, -187500.02235174447, -187500.02235174447, 0.61, 0.162, 0.768, 192.0, 0.0, 0.0, 0.0, 0.0, 0.0, 0.0, 0.0, 0.0, 0.0, 1.7161973601397965E9, 0.0, 2024-05-20 12:29:20.139
73.0, -2189.867459519799, -187500.02235174447, -187500.02235174447, -187500.02235174447, -187500.02235174447, -187500.02235174447, -187500.02235174447, -187500.02235174447, 0.61, 0.162, 0.768, 192.0, 0.0, 0.0, 0.0, 0.0, 0.0, 0.0, 0.0, 0.0, 0.0, 1.716197360143824E9, 0.0, 2024-05-20 12:29:20.143
74.0, -2199.5010613800364, -187500.02235174447, -187500.02235174447, -187500.02235174447, -187500.02235174447, -187500.02235174447, -187500.02235174447, -187500.02235174447, 0.61, 0.162, 0.768, 192.0, 0.0, 0.0, 0.0, 0.0, 0.0, 0.0, 0.0, 0.0, 0.0, 1.716197360148847E9, 0.0, 2024-05-20 12:29:20.148
75.0, -2195.991837500553, -187500.02235174447, -187500.02235174447, -187500.02235174447, -187500.02235174447, -187500.02235174447, -187500.02235174447, -187500.02235174447, 0.612, 0.166, 0.77, 192.0, 19.0, 32.0, 5.0, 48.0, 24.0, 16.0, 0.0, 0.0, 0.0, 1.7161973601518505E9, 0.0, 2024-05-20 12:29:20.151
76.0, -2189.1075002083185, -187500.02235174447, -187500.02235174447, -187500.02235174447, -187500.02235174447, -187500.02235174447, -187500.02235174447, -187500.02235174447, 0.612, 0.166, 0.77, 192.0, 0.0, 0.0, 0.0, 0.0, 0.0, 0.0, 0.0, 0.0, 0.0, 1.7161973601558373E9, 0.0, 2024-05-20 12:29:20.155
77.0, -2182.67019780519, -187500.02235174447, -187500.02235174447, -187500.02235174447, -187500.02235174447, -187500.02235174447, -187500.02235174447, -187500.02235174447, 0.612, 0.166, 0.77, 192.0, 0.0, 0.0, 0.0, 0.0, 0.0, 0.0, 0.0, 0.0, 0.0, 1.7161973601598752E9, 0.0, 2024-05-20 12:29:20.159
78.0, -2185.8664972622987, -187500.02235174447, -187500.02235174447, -187500.02235174447, -187500.02235174447, -187500.02235174447, -187500.02235174447, -187500.02235174447, 0.612, 0.166, 0.77, 192.0, 0.0, 0.0, 0.0, 0.0, 0.0, 0.0, 0.0, 0.0, 0.0, 1.716197360163874E9, 0.0, 2024-05-20 12:29:20.163
79.0, -2195.0307124889746, -187500.02235174447, -187500.02235174447, -187500.02235174447, -187500.02235174447, -187500.02235174447, -187500.02235174447, -187500.02235174447, 0.612, 0.166, 0.77, 192.0, 0.0, 0.0, 0.0, 0.0, 0.0, 0.0, 0.0, 0.0, 0.0, 1.7161973601679275E9, 0.0, 2024-05-20 12:29:20.167
80.0, -2201.1550904697287, -187500.02235174447, -187500.02235174447, -187500.02235174447, -187500.02235174447, -187500.02235174447, -187500.02235174447, -187500.02235174447, 0.612, 0.166, 0.77, 192.0, 0.0, 0.0, 0.0, 0.0, 0.0, 0.0, 0.0, 0.0, 0.0, 1.7161973601719232E9, 0.0, 2024-05-20 12:29:20.171
81.0, -2192.5273171099802, -187500.02235174447, -187500.02235174447, -187500.02235174447, -187500.02235174447, -187500.02235174447, -187500.02235174447, -187500.02235174447, 0.612, 0.166, 0.77, 192.0, 0.0, 0.0, 0.0, 0.0, 0.0, 0.0, 0.0, 0.0, 0.0, 1.716197360176926E9, 0.0, 2024-05-20 12:29:20.176
82.0, -2183.787785027955, -187500.02235174447, -187500.02235174447, -187500.02235174447, -187500.02235174447, -187500.02235174447, -187500.02235174447, -187500.02235174447, 0.612, 0.166, 0.77, 192.0, 0.0, 0.0, 0.0, 0.0, 0.0, 0.0, 0.0, 0.0, 0.0, 1.7161973601799524E9, 0.0, 2024-05-20 12:29:20.179
83.0, -2178.088090191852, -187500.02235174447, -187500.02235174447, -187500.02235174447, -187500.02235174447, -187500.02235174447, -187500.02235174447, -187500.02235174447, 0.612, 0.166, 0.77, 192.0, 0.0, 0.0, 0.0, 0.0, 0.0, 0.0, 0.0, 0.0, 0.0, 1.716197360182973E9, 0.0, 2024-05-20 12:29:20.182
84.0, -2182.8713635052877, -187500.02235174447, -187500.02235174447, -187500.02235174447, -187500.02235174447, -187500.02235174447, -187500.02235174447, -187500.02235174447, 0.612, 0.166, 0.77, 192.0, 0.0, 0.0, 0.0, 0.0, 0.0, 0.0, 0.0, 0.0, 0.0, 1.7161973601879895E9, 0.0, 2024-05-20 12:29:20.187
85.0, -2181.865535004799, -187500.02235174447, -187500.02235174447, -187500.02235174447, -187500.02235174447, -187500.02235174447, -187500.02235174447, -187500.02235174447, 0.616, 0.168, 0.774, 192.0, 19.0, 64.0, 5.0, 64.0, 24.0, 48.0, 0.0, 0.0, 0.0, 1.7161973601919763E9, 0.0, 2024-05-20 12:29:20.191
86.0, -2190.1356804532625, -187500.02235174447, -187500.02235174447, -187500.02235174447, -187500.02235174447, -187500.02235174447, -187500.02235174447, -187500.02235174447, 0.616, 0.168, 0.774, 192.0, 0.0, 0.0, 0.0, 0.0, 0.0, 0.0, 0.0, 0.0, 0.0, 1.7161973601960127E9, 0.0, 2024-05-20 12:29:20.196
87.0, -2179.2727326479835, -187500.02235174447, -187500.02235174447, -187500.02235174447, -187500.02235174447, -187500.02235174447, -187500.02235174447, -187500.02235174447, 0.616, 0.168, 0.774, 192.0, 0.0, 0.0, 0.0, 0.0, 0.0, 0.0, 0.0, 0.0, 0.0, 1.716197360200014E9, 0.0, 2024-05-20 12:29:20.200
88.0, -2179.6527123037235, -187500.02235174447, -187500.02235174447, -187500.02235174447, -187500.02235174447, -187500.02235174447, -187500.02235174447, -187500.02235174447, 0.616, 0.168, 0.774, 192.0, 0.0, 0.0, 0.0, 0.0, 0.0, 0.0, 0.0, 0.0, 0.0, 1.7161973602050543E9, 0.0, 2024-05-20 12:29:20.205
89.0, -2180.055043703919, -187500.02235174447, -187500.02235174447, -187500.02235174447, -187500.02235174447, -187500.02235174447, -187500.02235174447, -187500.02235174447, 0.616, 0.168, 0.774, 192.0, 0.0, 0.0, 0.0, 0.0, 0.0, 0.0, 0.0, 0.0, 0.0, 1.716197360208139E9, 0.0, 2024-05-20 12:29:20.208
90.0, -2179.7197675370894, -187500.02235174447, -187500.02235174447, -187500.02235174447, -187500.02235174447, -187500.02235174447, -187500.02235174447, -187500.02235174447, 0.616, 0.168, 0.774, 192.0, 0.0, 0.0, 0.0, 0.0, 0.0, 0.0, 0.0, 0.0, 0.0, 1.7161973602110877E9, 0.0, 2024-05-20 12:29:20.211
91.0, -2190.605067086824, -187500.02235174447, -187500.02235174447, -187500.02235174447, -187500.02235174447, -187500.02235174447, -187500.02235174447, -187500.02235174447, 0.616, 0.168, 0.774, 192.0, 0.0, 0.0, 0.0, 0.0, 0.0, 0.0, 0.0, 0.0, 0.0, 1.7161973602151225E9, 0.0, 2024-05-20 12:29:20.215
92.0, -2187.028787973975, -187500.02235174447, -187500.02235174447, -187500.02235174447, -187500.02235174447, -187500.02235174447, -187500.02235174447, -187500.02235174447, 0.616, 0.168, 0.774, 192.0, 0.0, 0.0, 0.0, 0.0, 0.0, 0.0, 0.0, 0.0, 0.0, 1.716197360220126E9, 0.0, 2024-05-20 12:29:20.220
93.0, -2186.246476918039, -187500.02235174447, -187500.02235174447, -187500.02235174447, -187500.02235174447, -187500.02235174447, -187500.02235174447, -187500.02235174447, 0.616, 0.168, 0.774, 192.0, 0.0, 0.0, 0.0, 0.0, 0.0, 0.0, 0.0, 0.0, 0.0, 1.7161973602241132E9, 0.0, 2024-05-20 12:29:20.224
94.0, -2181.0385204599525, -187500.02235174447, -187500.02235174447, -187500.02235174447, -187500.02235174447, -187500.02235174447, -187500.02235174447, -187500.02235174447, 0.622, 0.162, 0.766, 192.0, 19.0, 112.0, 5.0, 16.0, 23.0, 240.0, 0.0, 0.0, 0.0, 1.7161973602281597E9, 0.0, 2024-05-20 12:29:20.228
95.0, -2188.5040031080252, -187500.02235174447, -187500.02235174447, -187500.02235174447, -187500.02235174447, -187500.02235174447, -187500.02235174447, -187500.02235174447, 0.622, 0.162, 0.766, 192.0, 0.0, 0.0, 0.0, 0.0, 0.0, 0.0, 0.0, 0.0, 0.0, 1.7161973602322035E9, 0.0, 2024-05-20 12:29:20.232
96.0, -2190.314494408905, -187500.02235174447, -187500.02235174447, -187500.02235174447, -187500.02235174447, -187500.02235174447, -187500.02235174447, -187500.02235174447, 0.622, 0.162, 0.766, 192.0, 0.0, 0.0, 0.0, 0.0, 0.0, 0.0, 0.0, 0.0, 0.0, 1.7161973602361991E9, 0.0, 2024-05-20 12:29:20.236
97.0, -2204.7090178381227, -187500.02235174447, -187500.02235174447, -187500.02235174447, -187500.02235174447, -187500.02235174447, -187500.02235174447, -187500.02235174447, 0.622, 0.162, 0.766, 192.0, 0.0, 0.0, 0.0, 0.0, 0.0, 0.0, 0.0, 0.0, 0.0, 1.716197360239149E9, 0.0, 2024-05-20 12:29:20.239
98.0, -2214.2085092316283, -187500.02235174447, -187500.02235174447, -187500.02235174447, -187500.02235174447, -187500.02235174447, -187500.02235174447, -187500.02235174447, 0.622, 0.162, 0.766, 192.0, 0.0, 0.0, 0.0, 0.0, 0.0, 0.0, 0.0, 0.0, 0.0, 1.716197360243176E9, 0.0, 2024-05-20 12:29:20.243
99.0, -2204.016113760008, -187500.02235174447, -187500.02235174447, -187500.02235174447, -187500.02235174447, -187500.02235174447, -187500.02235174447, -187500.02235174447, 0.622, 0.162, 0.766, 192.0, 0.0, 0.0, 0.0, 0.0, 0.0, 0.0, 0.0, 0.0, 0.0, 1.7161973602482245E9, 0.0, 2024-05-20 12:29:20.248
100.0, -2206.4971573945472, -187500.02235174447, -187500.02235174447, -187500.02235174447, -187500.02235174447, -187500.02235174447, -187500.02235174447, -187500.02235174447, 0.622, 0.162, 0.766, 192.0, 0.0, 0.0, 0.0, 0.0, 0.0, 0.0, 0.0, 0.0, 0.0, 1.716197360252237E9, 0.0, 2024-05-20 12:29:20.252
101.0, -2203.189099215162, -187500.02235174447, -187500.02235174447, -187500.02235174447, -187500.02235174447, -187500.02235174447, -187500.02235174447, -187500.02235174447, 0.622, 0.162, 0.766, 192.0, 0.0, 0.0, 0.0, 0.0, 0.0, 0.0, 0.0, 0.0, 0.0, 1.7161973602562127E9, 0.0, 2024-05-20 12:29:20.256
102.0, -2204.597259115846, -187500.02235174447, -187500.02235174447, -187500.02235174447, -187500.02235174447, -187500.02235174447, -187500.02235174447, -187500.02235174447, 0.622, 0.162, 0.766, 192.0, 0.0, 0.0, 0.0, 0.0, 0.0, 0.0, 0.0, 0.0, 0.0, 1.716197360259249E9, 0.0, 2024-05-20 12:29:20.259
103.0, -2201.691532336656, -187500.02235174447, -187500.02235174447, -187500.02235174447, -187500.02235174447, -187500.02235174447, -187500.02235174447, -187500.02235174447, 0.622, 0.162, 0.766, 192.0, 0.0, 0.0, 0.0, 0.0, 0.0, 0.0, 0.0, 0.0, 0.0, 1.7161973602632644E9, 0.0, 2024-05-20 12:29:20.263
104.0, -2213.2250324755946, -187500.02235174447, -187500.02235174447, -187500.02235174447, -187500.02235174447, -187500.02235174447, -187500.02235174447, -187500.02235174447, 0.624, 0.16, 0.768, 192.0, 19.0, 128.0, 5.0, 0.0, 24.0, 0.0, 0.0, 0.0, 0.0, 1.7161973602673123E9, 0.0, 2024-05-20 12:29:20.267
105.0, -2221.7410471130665, -187500.02235174447, -187500.02235174447, -187500.02235174447, -187500.02235174447, -187500.02235174447, -187500.02235174447, -187500.02235174447, 0.624, 0.16, 0.768, 192.0, 0.0, 0.0, 0.0, 0.0, 0.0, 0.0, 0.0, 0.0, 0.0, 1.7161973602712774E9, 0.0, 2024-05-20 12:29:20.271
106.0, -2231.307593739938, -187500.02235174447, -187500.02235174447, -187500.02235174447, -187500.02235174447, -187500.02235174447, -187500.02235174447, -187500.02235174447, 0.624, 0.16, 0.768, 192.0, 0.0, 0.0, 0.0, 0.0, 0.0, 0.0, 0.0, 0.0, 0.0, 1.716197360275314E9, 0.0, 2024-05-20 12:29:20.275
107.0, -2211.727465597089, -187500.02235174447, -187500.02235174447, -187500.02235174447, -187500.02235174447, -187500.02235174447, -187500.02235174447, -187500.02235174447, 0.624, 0.16, 0.768, 192.0, 0.0, 0.0, 0.0, 0.0, 0.0, 0.0, 0.0, 0.0, 0.0, 1.7161973602803037E9, 0.0, 2024-05-20 12:29:20.280
108.0, -2207.257116706028, -187500.02235174447, -187500.02235174447, -187500.02235174447, -187500.02235174447, -187500.02235174447, -187500.02235174447, -187500.02235174447, 0.624, 0.16, 0.768, 192.0, 0.0, 0.0, 0.0, 0.0, 0.0, 0.0, 0.0, 0.0, 0.0, 1.7161973602853365E9, 0.0, 2024-05-20 12:29:20.285
109.0, -2210.2969539519495, -187500.02235174447, -187500.02235174447, -187500.02235174447, -187500.02235174447, -187500.02235174447, -187500.02235174447, -187500.02235174447, 0.624, 0.16, 0.768, 192.0, 0.0, 0.0, 0.0, 0.0, 0.0, 0.0, 0.0, 0.0, 0.0, 1.7161973602893417E9, 0.0, 2024-05-20 12:29:20.289
110.0, -2208.2852969509718, -187500.02235174447, -187500.02235174447, -187500.02235174447, -187500.02235174447, -187500.02235174447, -187500.02235174447, -187500.02235174447, 0.624, 0.16, 0.768, 192.0, 0.0, 0.0, 0.0, 0.0, 0.0, 0.0, 0.0, 0.0, 0.0, 1.7161973602923863E9, 0.0, 2024-05-20 12:29:20.292
111.0, -2232.380477473793, -187500.02235174447, -187500.02235174447, -187500.02235174447, -187500.02235174447, -187500.02235174447, -187500.02235174447, -187500.02235174447, 0.624, 0.16, 0.768, 192.0, 0.0, 0.0, 0.0, 0.0, 0.0, 0.0, 0.0, 0.0, 0.0, 1.7161973602953784E9, 0.0, 2024-05-20 12:29:20.295
112.0, -2220.4669976791142, -187500.02235174447, -187500.02235174447, -187500.02235174447, -187500.02235174447, -187500.02235174447, -187500.02235174447, -187500.02235174447, 0.624, 0.16, 0.768, 192.0, 0.0, 0.0, 0.0, 0.0, 0.0, 0.0, 0.0, 0.0, 0.0, 1.7161973602994304E9, 0.0, 2024-05-20 12:29:20.299
113.0, -2224.087980280874, -187500.02235174447, -187500.02235174447, -187500.02235174447, -187500.02235174447, -187500.02235174447, -187500.02235174447, -187500.02235174447, 0.624, 0.16, 0.768, 192.0, 0.0, 0.0, 0.0, 0.0, 0.0, 0.0, 0.0, 0.0, 0.0, 1.7161973603034508E9, 0.0, 2024-05-20 12:29:20.303
114.0, -2236.3590879868375, -187500.02235174447, -187500.02235174447, -187500.02235174447, -187500.02235174447, -187500.02235174447, -187500.02235174447, -187500.02235174447, 0.618, 0.17, 0.77, 192.0, 19.0, 80.0, 5.0, 80.0, 24.0, 16.0, 0.0, 0.0, 0.0, 1.7161973603094628E9, 0.0, 2024-05-20 12:29:20.309
115.0, -2233.3639542298265, -187500.02235174447, -187500.02235174447, -187500.02235174447, -187500.02235174447, -187500.02235174447, -187500.02235174447, -187500.02235174447, 0.618, 0.17, 0.77, 192.0, 0.0, 0.0, 0.0, 0.0, 0.0, 0.0, 0.0, 0.0, 0.0, 1.7161973603124735E9, 0.0, 2024-05-20 12:29:20.312
116.0, -2235.4203147197145, -187500.02235174447, -187500.02235174447, -187500.02235174447, -187500.02235174447, -187500.02235174447, -187500.02235174447, -187500.02235174447, 0.618, 0.17, 0.77, 192.0, 0.0, 0.0, 0.0, 0.0, 0.0, 0.0, 0.0, 0.0, 0.0, 1.7161973603154783E9, 0.0, 2024-05-20 12:29:20.315
117.0, -2241.9693758451194, -187500.02235174447, -187500.02235174447, -187500.02235174447, -187500.02235174447, -187500.02235174447, -187500.02235174447, -187500.02235174447, 0.618, 0.17, 0.77, 192.0, 0.0, 0.0, 0.0, 0.0, 0.0, 0.0, 0.0, 0.0, 0.0, 1.7161973603194969E9, 0.0, 2024-05-20 12:29:20.319
118.0, -2233.207492018639, -187500.02235174447, -187500.02235174447, -187500.02235174447, -187500.02235174447, -187500.02235174447, -187500.02235174447, -187500.02235174447, 0.618, 0.17, 0.77, 192.0, 0.0, 0.0, 0.0, 0.0, 0.0, 0.0, 0.0, 0.0, 0.0, 1.7161973603235908E9, 0.0, 2024-05-20 12:29:20.323
119.0, -2238.3260414989045, -187500.02235174447, -187500.02235174447, -187500.02235174447, -187500.02235174447, -187500.02235174447, -187500.02235174447, -187500.02235174447, 0.618, 0.17, 0.77, 192.0, 0.0, 0.0, 0.0, 0.0, 0.0, 0.0, 0.0, 0.0, 0.0, 1.7161973603275895E9, 0.0, 2024-05-20 12:29:20.327
120.0, -2242.1258380563067, -187500.02235174447, -187500.02235174447, -187500.02235174447, -187500.02235174447, -187500.02235174447, -187500.02235174447, -187500.02235174447, 0.618, 0.17, 0.77, 192.0, 0.0, 0.0, 0.0, 0.0, 0.0, 0.0, 0.0, 0.0, 0.0, 1.7161973603316019E9, 0.0, 2024-05-20 12:29:20.331
121.0, -2233.229843763095, -187500.02235174447, -187500.02235174447, -187500.02235174447, -187500.02235174447, -187500.02235174447, -187500.02235174447, -187500.02235174447, 0.618, 0.17, 0.77, 192.0, 0.0, 0.0, 0.0, 0.0, 0.0, 0.0, 0.0, 0.0, 0.0, 1.7161973603355923E9, 0.0, 2024-05-20 12:29:20.335
122.0, -2231.955794329142, -187500.02235174447, -187500.02235174447, -187500.02235174447, -187500.02235174447, -187500.02235174447, -187500.02235174447, -187500.02235174447, 0.618, 0.17, 0.77, 192.0, 0.0, 0.0, 0.0, 0.0, 0.0, 0.0, 0.0, 0.0, 0.0, 1.7161973603405912E9, 0.0, 2024-05-20 12:29:20.340
123.0, -2240.181236288695, -187500.02235174447, -187500.02235174447, -187500.02235174447, -187500.02235174447, -187500.02235174447, -187500.02235174447, -187500.02235174447, 0.618, 0.17, 0.77, 192.0, 0.0, 0.0, 0.0, 0.0, 0.0, 0.0, 0.0, 0.0, 0.0, 1.7161973603435776E9, 0.0, 2024-05-20 12:29:20.343
124.0, -2224.53501516998, -187500.02235174447, -187500.02235174447, -187500.02235174447, -187500.02235174447, -187500.02235174447, -187500.02235174447, -187500.02235174447, 0.618, 0.162, 0.77, 192.0, 19.0, 80.0, 5.0, 16.0, 24.0, 16.0, 0.0, 0.0, 0.0, 1.7161973603485904E9, 0.0, 2024-05-20 12:29:20.348
125.0, -2229.988840817075, -187500.02235174447, -187500.02235174447, -187500.02235174447, -187500.02235174447, -187500.02235174447, -187500.02235174447, -187500.02235174447, 0.618, 0.162, 0.77, 192.0, 0.0, 0.0, 0.0, 0.0, 0.0, 0.0, 0.0, 0.0, 0.0, 1.716197360351644E9, 0.0, 2024-05-20 12:29:20.351
126.0, -2226.5466721709577, -187500.02235174447, -187500.02235174447, -187500.02235174447, -187500.02235174447, -187500.02235174447, -187500.02235174447, -187500.02235174447, 0.618, 0.162, 0.77, 192.0, 0.0, 0.0, 0.0, 0.0, 0.0, 0.0, 0.0, 0.0, 0.0, 1.716197360356635E9, 0.0, 2024-05-20 12:29:20.356
127.0, -2229.63121290579, -187500.02235174447, -187500.02235174447, -187500.02235174447, -187500.02235174447, -187500.02235174447, -187500.02235174447, -187500.02235174447, 0.618, 0.162, 0.77, 192.0, 0.0, 0.0, 0.0, 0.0, 0.0, 0.0, 0.0, 0.0, 0.0, 1.716197360361644E9, 0.0, 2024-05-20 12:29:20.361
128.0, -2246.1715038027173, -187500.02235174447, -187500.02235174447, -187500.02235174447, -187500.02235174447, -187500.02235174447, -187500.02235174447, -187500.02235174447, 0.618, 0.162, 0.77, 192.0, 0.0, 0.0, 0.0, 0.0, 0.0, 0.0, 0.0, 0.0, 0.0, 1.716197360364673E9, 0.0, 2024-05-20 12:29:20.364
129.0, -2243.8245706349103, -187500.02235174447, -187500.02235174447, -187500.02235174447, -187500.02235174447, -187500.02235174447, -187500.02235174447, -187500.02235174447, 0.618, 0.162, 0.77, 192.0, 0.0, 0.0, 0.0, 0.0, 0.0, 0.0, 0.0, 0.0, 0.0, 1.7161973603677025E9, 0.0, 2024-05-20 12:29:20.367
130.0, -2236.3143844979268, -187500.02235174447, -187500.02235174447, -187500.02235174447, -187500.02235174447, -187500.02235174447, -187500.02235174447, -187500.02235174447, 0.618, 0.162, 0.77, 192.0, 0.0, 0.0, 0.0, 0.0, 0.0, 0.0, 0.0, 0.0, 0.0, 1.716197360370689E9, 0.0, 2024-05-20 12:29:20.370
131.0, -2246.3950212472705, -187500.02235174447, -187500.02235174447, -187500.02235174447, -187500.02235174447, -187500.02235174447, -187500.02235174447, -187500.02235174447, 0.618, 0.162, 0.77, 192.0, 0.0, 0.0, 0.0, 0.0, 0.0, 0.0, 0.0, 0.0, 0.0, 1.7161973603767183E9, 0.0, 2024-05-20 12:29:20.376
132.0, -2223.1939105026618, -187500.02235174447, -187500.02235174447, -187500.02235174447, -187500.02235174447, -187500.02235174447, -187500.02235174447, -187500.02235174447, 0.618, 0.162, 0.77, 192.0, 0.0, 0.0, 0.0, 0.0, 0.0, 0.0, 0.0, 0.0, 0.0, 1.7161973603797095E9, 0.0, 2024-05-20 12:29:20.379
133.0, -2215.728427854589, -187500.02235174447, -187500.02235174447, -187500.02235174447, -187500.02235174447, -187500.02235174447, -187500.02235174447, -187500.02235174447, 0.618, 0.162, 0.77, 192.0, 0.0, 0.0, 0.0, 0.0, 0.0, 0.0, 0.0, 0.0, 0.0, 1.7161973603837352E9, 0.0, 2024-05-20 12:29:20.383
134.0, -2228.1559977717397, -187500.02235174447, -187500.02235174447, -187500.02235174447, -187500.02235174447, -187500.02235174447, -187500.02235174447, -187500.02235174447, 0.624, 0.166, 0.774, 192.0, 19.0, 128.0, 5.0, 48.0, 24.0, 48.0, 0.0, 0.0, 0.0, 1.7161973603877516E9, 0.0, 2024-05-20 12:29:20.387
135.0, -2243.7128119126337, -187500.02235174447, -187500.02235174447, -187500.02235174447, -187500.02235174447, -187500.02235174447, -187500.02235174447, -187500.02235174447, 0.624, 0.166, 0.774, 192.0, 0.0, 0.0, 0.0, 0.0, 0.0, 0.0, 0.0, 0.0, 0.0, 1.716197360391784E9, 0.0, 2024-05-20 12:29:20.391
136.0, -2245.7244689136114, -187500.02235174447, -187500.02235174447, -187500.02235174447, -187500.02235174447, -187500.02235174447, -187500.02235174447, -187500.02235174447, 0.624, 0.166, 0.774, 192.0, 0.0, 0.0, 0.0, 0.0, 0.0, 0.0, 0.0, 0.0, 0.0, 1.7161973603947804E9, 0.0, 2024-05-20 12:29:20.394
137.0, -2235.465018208625, -187500.02235174447, -187500.02235174447, -187500.02235174447, -187500.02235174447, -187500.02235174447, -187500.02235174447, -187500.02235174447, 0.624, 0.166, 0.774, 192.0, 0.0, 0.0, 0.0, 0.0, 0.0, 0.0, 0.0, 0.0, 0.0, 1.7161973603987844E9, 0.0, 2024-05-20 12:29:20.398
138.0, -2231.7546286290444, -187500.02235174447, -187500.02235174447, -187500.02235174447, -187500.02235174447, -187500.02235174447, -187500.02235174447, -187500.02235174447, 0.624, 0.166, 0.774, 192.0, 0.0, 0.0, 0.0, 0.0, 0.0, 0.0, 0.0, 0.0, 0.0, 1.7161973604027927E9, 0.0, 2024-05-20 12:29:20.402
139.0, -2241.63409967829, -187500.02235174447, -187500.02235174447, -187500.02235174447, -187500.02235174447, -187500.02235174447, -187500.02235174447, -187500.02235174447, 0.624, 0.166, 0.774, 192.0, 0.0, 0.0, 0.0, 0.0, 0.0, 0.0, 0.0, 0.0, 0.0, 1.7161973604078107E9, 0.0, 2024-05-20 12:29:20.407
140.0, -2238.080172309896, -187500.02235174447, -187500.02235174447, -187500.02235174447, -187500.02235174447, -187500.02235174447, -187500.02235174447, -187500.02235174447, 0.624, 0.166, 0.774, 192.0, 0.0, 0.0, 0.0, 0.0, 0.0, 0.0, 0.0, 0.0, 0.0, 1.7161973604119625E9, 0.0, 2024-05-20 12:29:20.411
141.0, -2215.326096454394, -187500.02235174447, -187500.02235174447, -187500.02235174447, -187500.02235174447, -187500.02235174447, -187500.02235174447, -187500.02235174447, 0.624, 0.166, 0.774, 192.0, 0.0, 0.0, 0.0, 0.0, 0.0, 0.0, 0.0, 0.0, 0.0, 1.7161973604158497E9, 0.0, 2024-05-20 12:29:20.415
142.0, -2220.3552389568376, -187500.02235174447, -187500.02235174447, -187500.02235174447, -187500.02235174447, -187500.02235174447, -187500.02235174447, -187500.02235174447, 0.624, 0.166, 0.774, 192.0, 0.0, 0.0, 0.0, 0.0, 0.0, 0.0, 0.0, 0.0, 0.0, 1.716197360419946E9, 0.0, 2024-05-20 12:29:20.419
143.0, -2232.022849562508, -187500.02235174447, -187500.02235174447, -187500.02235174447, -187500.02235174447, -187500.02235174447, -187500.02235174447, -187500.02235174447, 0.626, 0.156, 0.78, 192.0, 19.0, 144.0, 4.0, 224.0, 24.0, 96.0, 0.0, 0.0, 0.0, 1.7161973604228632E9, 0.0, 2024-05-20 12:29:20.422
144.0, -2254.1287248288068, -187500.02235174447, -187500.02235174447, -187500.02235174447, -187500.02235174447, -187500.02235174447, -187500.02235174447, -187500.02235174447, 0.626, 0.156, 0.78, 192.0, 0.0, 0.0, 0.0, 0.0, 0.0, 0.0, 0.0, 0.0, 0.0, 1.716197360426977E9, 0.0, 2024-05-20 12:29:20.426
145.0, -2230.0782477948965, -187500.02235174447, -187500.02235174447, -187500.02235174447, -187500.02235174447, -187500.02235174447, -187500.02235174447, -187500.02235174447, 0.626, 0.156, 0.78, 192.0, 0.0, 0.0, 0.0, 0.0, 0.0, 0.0, 0.0, 0.0, 0.0, 1.7161973604309192E9, 0.0, 2024-05-20 12:29:20.430
146.0, -2201.4680148921034, -187500.02235174447, -187500.02235174447, -187500.02235174447, -187500.02235174447, -187500.02235174447, -187500.02235174447, -187500.02235174447, 0.626, 0.156, 0.78, 192.0, 0.0, 0.0, 0.0, 0.0, 0.0, 0.0, 0.0, 0.0, 0.0, 1.71619736043493E9, 0.0, 2024-05-20 12:29:20.434
147.0, -2250.9324253716977, -187500.02235174447, -187500.02235174447, -187500.02235174447, -187500.02235174447, -187500.02235174447, -187500.02235174447, -187500.02235174447, 0.626, 0.156, 0.78, 192.0, 0.0, 0.0, 0.0, 0.0, 0.0, 0.0, 0.0, 0.0, 0.0, 1.7161973604399223E9, 0.0, 2024-05-20 12:29:20.439
148.0, -2258.956701631153, -187500.02235174447, -187500.02235174447, -187500.02235174447, -187500.02235174447, -187500.02235174447, -187500.02235174447, -187500.02235174447, 0.626, 0.156, 0.78, 192.0, 0.0, 0.0, 0.0, 0.0, 0.0, 0.0, 0.0, 0.0, 0.0, 1.7161973604439428E9, 0.0, 2024-05-20 12:29:20.443
149.0, -2265.773983690022, -187500.02235174447, -187500.02235174447, -187500.02235174447, -187500.02235174447, -187500.02235174447, -187500.02235174447, -187500.02235174447, 0.626, 0.156, 0.78, 192.0, 0.0, 0.0, 0.0, 0.0, 0.0, 0.0, 0.0, 0.0, 0.0, 1.7161973604479742E9, 0.0, 2024-05-20 12:29:20.447
150.0, -2271.361919803848, -187500.02235174447, -187500.02235174447, -187500.02235174447, -187500.02235174447, -187500.02235174447, -187500.02235174447, -187500.02235174447, 0.626, 0.156, 0.78, 192.0, 0.0, 0.0, 0.0, 0.0, 0.0, 0.0, 0.0, 0.0, 0.0, 1.716197360452033E9, 0.0, 2024-05-20 12:29:20.452
151.0, -2278.40271930727, -187500.02235174447, -187500.02235174447, -187500.02235174447, -187500.02235174447, -187500.02235174447, -187500.02235174447, -187500.02235174447, 0.626, 0.156, 0.78, 192.0, 0.0, 0.0, 0.0, 0.0, 0.0, 0.0, 0.0, 0.0, 0.0, 1.7161973604549854E9, 0.0, 2024-05-20 12:29:20.454
152.0, -2269.5290767585134, -187500.02235174447, -187500.02235174447, -187500.02235174447, -187500.02235174447, -187500.02235174447, -187500.02235174447, -187500.02235174447, 0.626, 0.156, 0.78, 192.0, 0.0, 0.0, 0.0, 0.0, 0.0, 0.0, 0.0, 0.0, 0.0, 1.7161973604590085E9, 0.0, 2024-05-20 12:29:20.459
153.0, -2254.084021339896, -187500.02235174447, -187500.02235174447, -187500.02235174447, -187500.02235174447, -187500.02235174447, -187500.02235174447, -187500.02235174447, 0.622, 0.156, 0.78, 192.0, 19.0, 112.0, 4.0, 224.0, 24.0, 96.0, 0.0, 0.0, 0.0, 1.7161973604630334E9, 0.0, 2024-05-20 12:29:20.463
154.0, -2258.0626318529407, -187500.02235174447, -187500.02235174447, -187500.02235174447, -187500.02235174447, -187500.02235174447, -187500.02235174447, -187500.02235174447, 0.622, 0.156, 0.78, 192.0, 0.0, 0.0, 0.0, 0.0, 0.0, 0.0, 0.0, 0.0, 0.0, 1.7161973604670677E9, 0.0, 2024-05-20 12:29:20.467
155.0, -2270.378443047815, -187500.02235174447, -187500.02235174447, -187500.02235174447, -187500.02235174447, -187500.02235174447, -187500.02235174447, -187500.02235174447, 0.622, 0.156, 0.78, 192.0, 0.0, 0.0, 0.0, 0.0, 0.0, 0.0, 0.0, 0.0, 0.0, 1.716197360472072E9, 0.0, 2024-05-20 12:29:20.472
156.0, -2244.472771224114, -187500.02235174447, -187500.02235174447, -187500.02235174447, -187500.02235174447, -187500.02235174447, -187500.02235174447, -187500.02235174447, 0.622, 0.156, 0.78, 192.0, 0.0, 0.0, 0.0, 0.0, 0.0, 0.0, 0.0, 0.0, 0.0, 1.7161973604761162E9, 0.0, 2024-05-20 12:29:20.476
157.0, -2249.9713003601196, -187500.02235174447, -187500.02235174447, -187500.02235174447, -187500.02235174447, -187500.02235174447, -187500.02235174447, -187500.02235174447, 0.622, 0.156, 0.78, 192.0, 0.0, 0.0, 0.0, 0.0, 0.0, 0.0, 0.0, 0.0, 0.0, 1.7161973604790847E9, 0.0, 2024-05-20 12:29:20.479
158.0, -2278.447422796181, -187500.02235174447, -187500.02235174447, -187500.02235174447, -187500.02235174447, -187500.02235174447, -187500.02235174447, -187500.02235174447, 0.622, 0.156, 0.78, 192.0, 0.0, 0.0, 0.0, 0.0, 0.0, 0.0, 0.0, 0.0, 0.0, 1.7161973604831393E9, 0.0, 2024-05-20 12:29:20.483
159.0, -2275.944027417186, -187500.02235174447, -187500.02235174447, -187500.02235174447, -187500.02235174447, -187500.02235174447, -187500.02235174447, -187500.02235174447, 0.622, 0.156, 0.78, 192.0, 0.0, 0.0, 0.0, 0.0, 0.0, 0.0, 0.0, 0.0, 0.0, 1.7161973604870975E9, 0.0, 2024-05-20 12:29:20.487
160.0, -2279.9673414191416, -187500.02235174447, -187500.02235174447, -187500.02235174447, -187500.02235174447, -187500.02235174447, -187500.02235174447, -187500.02235174447, 0.622, 0.156, 0.78, 192.0, 0.0, 0.0, 0.0, 0.0, 0.0, 0.0, 0.0, 0.0, 0.0, 1.7161973604911375E9, 0.0, 2024-05-20 12:29:20.491
161.0, -2262.0635941104406, -187500.02235174447, -187500.02235174447, -187500.02235174447, -187500.02235174447, -187500.02235174447, -187500.02235174447, -187500.02235174447, 0.622, 0.156, 0.78, 192.0, 0.0, 0.0, 0.0, 0.0, 0.0, 0.0, 0.0, 0.0, 0.0, 1.7161973604951577E9, 0.0, 2024-05-20 12:29:20.495
162.0, -2229.050067549952, -187500.02235174447, -187500.02235174447, -187500.02235174447, -187500.02235174447, -187500.02235174447, -187500.02235174447, -187500.02235174447, 0.622, 0.156, 0.78, 192.0, 0.0, 0.0, 0.0, 0.0, 0.0, 0.0, 0.0, 0.0, 0.0, 1.7161973605001884E9, 0.0, 2024-05-20 12:29:20.500
163.0, -2254.821628906921, -187500.02235174447, -187500.02235174447, -187500.02235174447, -187500.02235174447, -187500.02235174447, -187500.02235174447, -187500.02235174447, 0.624, 0.16, 0.774, 192.0, 19.0, 128.0, 5.0, 0.0, 24.0, 48.0, 0.0, 0.0, 0.0, 1.716197360504186E9, 0.0, 2024-05-20 12:29:20.504
164.0, -2255.246312051572, -187500.02235174447, -187500.02235174447, -187500.02235174447, -187500.02235174447, -187500.02235174447, -187500.02235174447, -187500.02235174447, 0.624, 0.16, 0.774, 192.0, 0.0, 0.0, 0.0, 0.0, 0.0, 0.0, 0.0, 0.0, 0.0, 1.7161973605071988E9, 0.0, 2024-05-20 12:29:20.507
165.0, -2258.6214254643232, -187500.02235174447, -187500.02235174447, -187500.02235174447, -187500.02235174447, -187500.02235174447, -187500.02235174447, -187500.02235174447, 0.624, 0.16, 0.774, 192.0, 0.0, 0.0, 0.0, 0.0, 0.0, 0.0, 0.0, 0.0, 0.0, 1.7161973605112064E9, 0.0, 2024-05-20 12:29:20.511
166.0, -2273.217114593639, -187500.02235174447, -187500.02235174447, -187500.02235174447, -187500.02235174447, -187500.02235174447, -187500.02235174447, -187500.02235174447, 0.624, 0.16, 0.774, 192.0, 0.0, 0.0, 0.0, 0.0, 0.0, 0.0, 0.0, 0.0, 0.0, 1.7161973605162423E9, 0.0, 2024-05-20 12:29:20.516
167.0, -2289.0868531569067, -187500.02235174447, -187500.02235174447, -187500.02235174447, -187500.02235174447, -187500.02235174447, -187500.02235174447, -187500.02235174447, 0.624, 0.16, 0.774, 192.0, 0.0, 0.0, 0.0, 0.0, 0.0, 0.0, 0.0, 0.0, 0.0, 1.7161973605222871E9, 0.0, 2024-05-20 12:29:20.522
168.0, -2273.4853355271025, -187500.02235174447, -187500.02235174447, -187500.02235174447, -187500.02235174447, -187500.02235174447, -187500.02235174447, -187500.02235174447, 0.624, 0.16, 0.774, 192.0, 0.0, 0.0, 0.0, 0.0, 0.0, 0.0, 0.0, 0.0, 0.0, 1.71619736052526E9, 0.0, 2024-05-20 12:29:20.525
169.0, -2277.6427599957897, -187500.02235174447, -187500.02235174447, -187500.02235174447, -187500.02235174447, -187500.02235174447, -187500.02235174447, -187500.02235174447, 0.624, 0.16, 0.774, 192.0, 0.0, 0.0, 0.0, 0.0, 0.0, 0.0, 0.0, 0.0, 0.0, 1.7161973605292752E9, 0.0, 2024-05-20 12:29:20.529
170.0, -2289.1315566458175, -187500.02235174447, -187500.02235174447, -187500.02235174447, -187500.02235174447, -187500.02235174447, -187500.02235174447, -187500.02235174447, 0.624, 0.16, 0.774, 192.0, 0.0, 0.0, 0.0, 0.0, 0.0, 0.0, 0.0, 0.0, 0.0, 1.7161973605323365E9, 0.0, 2024-05-20 12:29:20.532
171.0, -2284.0353589100073, -187500.02235174447, -187500.02235174447, -187500.02235174447, -187500.02235174447, -187500.02235174447, -187500.02235174447, -187500.02235174447, 0.624, 0.16, 0.774, 192.0, 0.0, 0.0, 0.0, 0.0, 0.0, 0.0, 0.0, 0.0, 0.0, 1.7161973605352883E9, 0.0, 2024-05-20 12:29:20.535
172.0, -2279.185030363206, -187500.02235174447, -187500.02235174447, -187500.02235174447, -187500.02235174447, -187500.02235174447, -187500.02235174447, -187500.02235174447, 0.624, 0.16, 0.774, 192.0, 0.0, 0.0, 0.0, 0.0, 0.0, 0.0, 0.0, 0.0, 0.0, 1.7161973605393262E9, 0.0, 2024-05-20 12:29:20.539
173.0, -2289.0421496679965, -187500.02235174447, -187500.02235174447, -187500.02235174447, -187500.02235174447, -187500.02235174447, -187500.02235174447, -187500.02235174447, 0.624, 0.158, 0.768, 192.0, 19.0, 128.0, 4.0, 240.0, 24.0, 0.0, 0.0, 0.0, 0.0, 1.7161973605433364E9, 0.0, 2024-05-20 12:29:20.543
174.0, -2292.9984084365856, -187500.02235174447, -187500.02235174447, -187500.02235174447, -187500.02235174447, -187500.02235174447, -187500.02235174447, -187500.02235174447, 0.624, 0.158, 0.768, 192.0, 0.0, 0.0, 0.0, 0.0, 0.0, 0.0, 0.0, 0.0, 0.0, 1.7161973605473783E9, 0.0, 2024-05-20 12:29:20.547
175.0, -2303.3249143749376, -187500.02235174447, -187500.02235174447, -187500.02235174447, -187500.02235174447, -187500.02235174447, -187500.02235174447, -187500.02235174447, 0.624, 0.158, 0.768, 192.0, 0.0, 0.0, 0.0, 0.0, 0.0, 0.0, 0.0, 0.0, 0.0, 1.7161973605513773E9, 0.0, 2024-05-20 12:29:20.551
176.0, -2275.6534547392675, -187500.02235174447, -187500.02235174447, -187500.02235174447, -187500.02235174447, -187500.02235174447, -187500.02235174447, -187500.02235174447, 0.624, 0.158, 0.768, 192.0, 0.0, 0.0, 0.0, 0.0, 0.0, 0.0, 0.0, 0.0, 0.0, 1.7161973605554087E9, 0.0, 2024-05-20 12:29:20.555
177.0, -2269.752594203066, -187500.02235174447, -187500.02235174447, -187500.02235174447, -187500.02235174447, -187500.02235174447, -187500.02235174447, -187500.02235174447, 0.624, 0.158, 0.768, 192.0, 0.0, 0.0, 0.0, 0.0, 0.0, 0.0, 0.0, 0.0, 0.0, 1.7161973605594065E9, 0.0, 2024-05-20 12:29:20.559
178.0, -2272.0995273708736, -187500.02235174447, -187500.02235174447, -187500.02235174447, -187500.02235174447, -187500.02235174447, -187500.02235174447, -187500.02235174447, 0.624, 0.158, 0.768, 192.0, 0.0, 0.0, 0.0, 0.0, 0.0, 0.0, 0.0, 0.0, 0.0, 1.7161973605644612E9, 0.0, 2024-05-20 12:29:20.564
179.0, -2275.899323928276, -187500.02235174447, -187500.02235174447, -187500.02235174447, -187500.02235174447, -187500.02235174447, -187500.02235174447, -187500.02235174447, 0.624, 0.158, 0.768, 192.0, 0.0, 0.0, 0.0, 0.0, 0.0, 0.0, 0.0, 0.0, 0.0, 1.7161973605674057E9, 0.0, 2024-05-20 12:29:20.567
180.0, -2288.081024656418, -187500.02235174447, -187500.02235174447, -187500.02235174447, -187500.02235174447, -187500.02235174447, -187500.02235174447, -187500.02235174447, 0.624, 0.158, 0.768, 192.0, 0.0, 0.0, 0.0, 0.0, 0.0, 0.0, 0.0, 0.0, 0.0, 1.7161973605714576E9, 0.0, 2024-05-20 12:29:20.571
181.0, -2293.7807194925213, -187500.02235174447, -187500.02235174447, -187500.02235174447, -187500.02235174447, -187500.02235174447, -187500.02235174447, -187500.02235174447, 0.624, 0.158, 0.768, 192.0, 0.0, 0.0, 0.0, 0.0, 0.0, 0.0, 0.0, 0.0, 0.0, 1.7161973605754669E9, 0.0, 2024-05-20 12:29:20.575
182.0, -2300.754463762577, -187500.02235174447, -187500.02235174447, -187500.02235174447, -187500.02235174447, -187500.02235174447, -187500.02235174447, -187500.02235174447, 0.62, 0.158, 0.768, 192.0, 19.0, 96.0, 4.0, 240.0, 24.0, 0.0, 0.0, 0.0, 0.0, 1.7161973605795228E9, 0.0, 2024-05-20 12:29:20.579
183.0, -2304.7107225311665, -187500.02235174447, -187500.02235174447, -187500.02235174447, -187500.02235174447, -187500.02235174447, -187500.02235174447, -187500.02235174447, 0.62, 0.158, 0.768, 192.0, 0.0, 0.0, 0.0, 0.0, 0.0, 0.0, 0.0, 0.0, 0.0, 1.716197360583509E9, 0.0, 2024-05-20 12:29:20.583
184.0, -2310.5445278340017, -187500.02235174447, -187500.02235174447, -187500.02235174447, -187500.02235174447, -187500.02235174447, -187500.02235174447, -187500.02235174447, 0.62, 0.158, 0.768, 192.0, 0.0, 0.0, 0.0, 0.0, 0.0, 0.0, 0.0, 0.0, 0.0, 1.7161973605865223E9, 0.0, 2024-05-20 12:29:20.586
185.0, -2327.755371064588, -187500.02235174447, -187500.02235174447, -187500.02235174447, -187500.02235174447, -187500.02235174447, -187500.02235174447, -187500.02235174447, 0.62, 0.158, 0.768, 192.0, 0.0, 0.0, 0.0, 0.0, 0.0, 0.0, 0.0, 0.0, 0.0, 1.716197360590586E9, 0.0, 2024-05-20 12:29:20.590
186.0, -2332.27042344456, -187500.02235174447, -187500.02235174447, -187500.02235174447, -187500.02235174447, -187500.02235174447, -187500.02235174447, -187500.02235174447, 0.62, 0.158, 0.768, 192.0, 0.0, 0.0, 0.0, 0.0, 0.0, 0.0, 0.0, 0.0, 0.0, 1.716197360594587E9, 0.0, 2024-05-20 12:29:20.594
187.0, -2320.5804610944347, -187500.02235174447, -187500.02235174447, -187500.02235174447, -187500.02235174447, -187500.02235174447, -187500.02235174447, -187500.02235174447, 0.62, 0.158, 0.768, 192.0, 0.0, 0.0, 0.0, 0.0, 0.0, 0.0, 0.0, 0.0, 0.0, 1.716197360598592E9, 0.0, 2024-05-20 12:29:20.598
188.0, -2300.4638910846584, -187500.02235174447, -187500.02235174447, -187500.02235174447, -187500.02235174447, -187500.02235174447, -187500.02235174447, -187500.02235174447, 0.62, 0.158, 0.768, 192.0, 0.0, 0.0, 0.0, 0.0, 0.0, 0.0, 0.0, 0.0, 0.0, 1.7161973606035945E9, 0.0, 2024-05-20 12:29:20.603
189.0, -2307.214117910161, -187500.02235174447, -187500.02235174447, -187500.02235174447, -187500.02235174447, -187500.02235174447, -187500.02235174447, -187500.02235174447, 0.62, 0.158, 0.768, 192.0, 0.0, 0.0, 0.0, 0.0, 0.0, 0.0, 0.0, 0.0, 0.0, 1.716197360607594E9, 0.0, 2024-05-20 12:29:20.607
190.0, -2341.3228799489593, -187500.02235174447, -187500.02235174447, -187500.02235174447, -187500.02235174447, -187500.02235174447, -187500.02235174447, -187500.02235174447, 0.62, 0.158, 0.768, 192.0, 0.0, 0.0, 0.0, 0.0, 0.0, 0.0, 0.0, 0.0, 0.0, 1.7161973606115882E9, 0.0, 2024-05-20 12:29:20.611
191.0, -2347.1343335073393, -187500.02235174447, -187500.02235174447, -187500.02235174447, -187500.02235174447, -187500.02235174447, -187500.02235174447, -187500.02235174447, 0.62, 0.158, 0.768, 192.0, 0.0, 0.0, 0.0, 0.0, 0.0, 0.0, 0.0, 0.0, 0.0, 1.7161973606176417E9, 0.0, 2024-05-20 12:29:20.617
192.0, -2348.520141663568, -187500.02235174447, -187500.02235174447, -187500.02235174447, -187500.02235174447, -187500.02235174447, -187500.02235174447, -187500.02235174447, 0.614, 0.162, 0.764, 192.0, 19.0, 48.0, 5.0, 16.0, 23.0, 224.0, 0.0, 0.0, 0.0, 1.7161973606206324E9, 0.0, 2024-05-20 12:29:20.620
193.0, -2341.300528204504, -187500.02235174447, -187500.02235174447, -187500.02235174447, -187500.02235174447, -187500.02235174447, -187500.02235174447, -187500.02235174447, 0.614, 0.162, 0.764, 192.0, 0.0, 0.0, 0.0, 0.0, 0.0, 0.0, 0.0, 0.0, 0.0, 1.716197360623663E9, 0.0, 2024-05-20 12:29:20.623
194.0, -2325.073161729951, -187500.02235174447, -187500.02235174447, -187500.02235174447, -187500.02235174447, -187500.02235174447, -187500.02235174447, -187500.02235174447, 0.614, 0.162, 0.764, 192.0, 0.0, 0.0, 0.0, 0.0, 0.0, 0.0, 0.0, 0.0, 0.0, 1.716197360627673E9, 0.0, 2024-05-20 12:29:20.627
195.0, -2324.0673332294623, -187500.02235174447, -187500.02235174447, -187500.02235174447, -187500.02235174447, -187500.02235174447, -187500.02235174447, -187500.02235174447, 0.614, 0.162, 0.764, 192.0, 0.0, 0.0, 0.0, 0.0, 0.0, 0.0, 0.0, 0.0, 0.0, 1.7161973606316354E9, 0.0, 2024-05-20 12:29:20.631
196.0, -2340.0935340039177, -187500.02235174447, -187500.02235174447, -187500.02235174447, -187500.02235174447, -187500.02235174447, -187500.02235174447, -187500.02235174447, 0.614, 0.162, 0.764, 192.0, 0.0, 0.0, 0.0, 0.0, 0.0, 0.0, 0.0, 0.0, 0.0, 1.7161973606356626E9, 0.0, 2024-05-20 12:29:20.635
197.0, -2335.913757790775, -187500.02235174447, -187500.02235174447, -187500.02235174447, -187500.02235174447, -187500.02235174447, -187500.02235174447, -187500.02235174447, 0.614, 0.162, 0.764, 192.0, 0.0, 0.0, 0.0, 0.0, 0.0, 0.0, 0.0, 0.0, 0.0, 1.716197360639727E9, 0.0, 2024-05-20 12:29:20.639
198.0, -2323.106208217884, -187500.02235174447, -187500.02235174447, -187500.02235174447, -187500.02235174447, -187500.02235174447, -187500.02235174447, -187500.02235174447, 0.614, 0.162, 0.764, 192.0, 0.0, 0.0, 0.0, 0.0, 0.0, 0.0, 0.0, 0.0, 0.0, 1.716197360642688E9, 0.0, 2024-05-20 12:29:20.642
199.0, -2331.89044378882, -187500.02235174447, -187500.02235174447, -187500.02235174447, -187500.02235174447, -187500.02235174447, -187500.02235174447, -187500.02235174447, 0.614, 0.162, 0.764, 192.0, 0.0, 0.0, 0.0, 0.0, 0.0, 0.0, 0.0, 0.0, 0.0, 1.7161973606467483E9, 0.0, 2024-05-20 12:29:20.646
200.0, -2329.8340832989315, -187500.02235174447, -187500.02235174447, -187500.02235174447, -187500.02235174447, -187500.02235174447, -187500.02235174447, -187500.02235174447, 0.614, 0.162, 0.764, 192.0, 0.0, 0.0, 0.0, 0.0, 0.0, 0.0, 0.0, 0.0, 0.0, 1.716197360650764E9, 0.0, 2024-05-20 12:29:20.650
201.0, -2329.4317518987364, -187500.02235174447, -187500.02235174447, -187500.02235174447, -187500.02235174447, -187500.02235174447, -187500.02235174447, -187500.02235174447, 0.614, 0.162, 0.764, 192.0, 0.0, 0.0, 0.0, 0.0, 0.0, 0.0, 0.0, 0.0, 0.0, 1.716197360654775E9, 0.0, 2024-05-20 12:29:20.654
202.0, -2328.0682954869626, -187500.02235174447, -187500.02235174447, -187500.02235174447, -187500.02235174447, -187500.02235174447, -187500.02235174447, -187500.02235174447, 0.614, 0.166, 0.764, 192.0, 19.0, 48.0, 5.0, 48.0, 23.0, 224.0, 0.0, 0.0, 0.0, 1.716197360658775E9, 0.0, 2024-05-20 12:29:20.658
203.0, -2310.8127487674656, -187500.02235174447, -187500.02235174447, -187500.02235174447, -187500.02235174447, -187500.02235174447, -187500.02235174447, -187500.02235174447, 0.614, 0.166, 0.764, 192.0, 0.0, 0.0, 0.0, 0.0, 0.0, 0.0, 0.0, 0.0, 0.0, 1.7161973606648E9, 0.0, 2024-05-20 12:29:20.664
204.0, -2327.1295222198396, -187500.02235174447, -187500.02235174447, -187500.02235174447, -187500.02235174447, -187500.02235174447, -187500.02235174447, -187500.02235174447, 0.614, 0.166, 0.764, 192.0, 0.0, 0.0, 0.0, 0.0, 0.0, 0.0, 0.0, 0.0, 0.0, 1.7161973606678567E9, 0.0, 2024-05-20 12:29:20.667
205.0, -2362.6687959037777, -187500.02235174447, -187500.02235174447, -187500.02235174447, -187500.02235174447, -187500.02235174447, -187500.02235174447, -187500.02235174447, 0.614, 0.166, 0.764, 192.0, 0.0, 0.0, 0.0, 0.0, 0.0, 0.0, 0.0, 0.0, 0.0, 1.7161973606718545E9, 0.0, 2024-05-20 12:29:20.671
206.0, -2357.7961156125207, -187500.02235174447, -187500.02235174447, -187500.02235174447, -187500.02235174447, -187500.02235174447, -187500.02235174447, -187500.02235174447, 0.614, 0.166, 0.764, 192.0, 0.0, 0.0, 0.0, 0.0, 0.0, 0.0, 0.0, 0.0, 0.0, 1.71619736067485E9, 0.0, 2024-05-20 12:29:20.674
207.0, -2323.8661675293647, -187500.02235174447, -187500.02235174447, -187500.02235174447, -187500.02235174447, -187500.02235174447, -187500.02235174447, -187500.02235174447, 0.614, 0.166, 0.764, 192.0, 0.0, 0.0, 0.0, 0.0, 0.0, 0.0, 0.0, 0.0, 0.0, 1.7161973606798606E9, 0.0, 2024-05-20 12:29:20.679
208.0, -2334.2820804455378, -187500.02235174447, -187500.02235174447, -187500.02235174447, -187500.02235174447, -187500.02235174447, -187500.02235174447, -187500.02235174447, 0.614, 0.166, 0.764, 192.0, 0.0, 0.0, 0.0, 0.0, 0.0, 0.0, 0.0, 0.0, 0.0, 1.716197360683909E9, 0.0, 2024-05-20 12:29:20.683
209.0, -2371.721252408177, -187500.02235174447, -187500.02235174447, -187500.02235174447, -187500.02235174447, -187500.02235174447, -187500.02235174447, -187500.02235174447, 0.614, 0.166, 0.764, 192.0, 0.0, 0.0, 0.0, 0.0, 0.0, 0.0, 0.0, 0.0, 0.0, 1.7161973606868596E9, 0.0, 2024-05-20 12:29:20.686
210.0, -2376.169249554783, -187500.02235174447, -187500.02235174447, -187500.02235174447, -187500.02235174447, -187500.02235174447, -187500.02235174447, -187500.02235174447, 0.614, 0.166, 0.764, 192.0, 0.0, 0.0, 0.0, 0.0, 0.0, 0.0, 0.0, 0.0, 0.0, 1.7161973606919303E9, 0.0, 2024-05-20 12:29:20.691
211.0, -2346.553188151501, -187500.02235174447, -187500.02235174447, -187500.02235174447, -187500.02235174447, -187500.02235174447, -187500.02235174447, -187500.02235174447, 0.614, 0.166, 0.764, 192.0, 0.0, 0.0, 0.0, 0.0, 0.0, 0.0, 0.0, 0.0, 0.0, 1.7161973606949415E9, 0.0, 2024-05-20 12:29:20.694
212.0, -2338.1265804918507, -187500.02235174447, -187500.02235174447, -187500.02235174447, -187500.02235174447, -187500.02235174447, -187500.02235174447, -187500.02235174447, 0.616, 0.17, 0.77, 192.0, 19.0, 64.0, 5.0, 80.0, 24.0, 16.0, 0.0, 0.0, 0.0, 1.7161973606979291E9, 0.0, 2024-05-20 12:29:20.697
213.0, -2332.0022025110966, -187500.02235174447, -187500.02235174447, -187500.02235174447, -187500.02235174447, -187500.02235174447, -187500.02235174447, -187500.02235174447, 0.616, 0.17, 0.77, 192.0, 0.0, 0.0, 0.0, 0.0, 0.0, 0.0, 0.0, 0.0, 0.0, 1.716197360702937E9, 0.0, 2024-05-20 12:29:20.702
214.0, -2292.439614825203, -187500.02235174447, -187500.02235174447, -187500.02235174447, -187500.02235174447, -187500.02235174447, -187500.02235174447, -187500.02235174447, 0.616, 0.17, 0.77, 192.0, 0.0, 0.0, 0.0, 0.0, 0.0, 0.0, 0.0, 0.0, 0.0, 1.716197360707038E9, 0.0, 2024-05-20 12:29:20.707
215.0, -2305.3589231203705, -187500.02235174447, -187500.02235174447, -187500.02235174447, -187500.02235174447, -187500.02235174447, -187500.02235174447, -187500.02235174447, 0.616, 0.17, 0.77, 192.0, 0.0, 0.0, 0.0, 0.0, 0.0, 0.0, 0.0, 0.0, 0.0, 1.7161973607109437E9, 0.0, 2024-05-20 12:29:20.710
216.0, -2359.919531335775, -187500.02235174447, -187500.02235174447, -187500.02235174447, -187500.02235174447, -187500.02235174447, -187500.02235174447, -187500.02235174447, 0.616, 0.17, 0.77, 192.0, 0.0, 0.0, 0.0, 0.0, 0.0, 0.0, 0.0, 0.0, 0.0, 1.7161973607150354E9, 0.0, 2024-05-20 12:29:20.715
217.0, -2364.3004732490153, -187500.02235174447, -187500.02235174447, -187500.02235174447, -187500.02235174447, -187500.02235174447, -187500.02235174447, -187500.02235174447, 0.616, 0.17, 0.77, 192.0, 0.0, 0.0, 0.0, 0.0, 0.0, 0.0, 0.0, 0.0, 0.0, 1.716197360718984E9, 0.0, 2024-05-20 12:29:20.718
218.0, -2319.6416878273117, -187500.02235174447, -187500.02235174447, -187500.02235174447, -187500.02235174447, -187500.02235174447, -187500.02235174447, -187500.02235174447, 0.616, 0.17, 0.77, 192.0, 0.0, 0.0, 0.0, 0.0, 0.0, 0.0, 0.0, 0.0, 0.0, 1.7161973607229807E9, 0.0, 2024-05-20 12:29:20.722
219.0, -2304.889536486809, -187500.02235174447, -187500.02235174447, -187500.02235174447, -187500.02235174447, -187500.02235174447, -187500.02235174447, -187500.02235174447, 0.616, 0.17, 0.77, 192.0, 0.0, 0.0, 0.0, 0.0, 0.0, 0.0, 0.0, 0.0, 0.0, 1.716197360726016E9, 0.0, 2024-05-20 12:29:20.726
220.0, -2350.1294672643503, -187500.02235174447, -187500.02235174447, -187500.02235174447, -187500.02235174447, -187500.02235174447, -187500.02235174447, -187500.02235174447, 0.616, 0.17, 0.77, 192.0, 0.0, 0.0, 0.0, 0.0, 0.0, 0.0, 0.0, 0.0, 0.0, 1.7161973607310166E9, 0.0, 2024-05-20 12:29:20.731
221.0, -2366.021557572074, -187500.02235174447, -187500.02235174447, -187500.02235174447, -187500.02235174447, -187500.02235174447, -187500.02235174447, -187500.02235174447, 0.622, 0.168, 0.768, 192.0, 19.0, 112.0, 5.0, 64.0, 24.0, 0.0, 0.0, 0.0, 0.0, 1.7161973607350638E9, 0.0, 2024-05-20 12:29:20.735
222.0, -2362.4229267147693, -187500.02235174447, -187500.02235174447, -187500.02235174447, -187500.02235174447, -187500.02235174447, -187500.02235174447, -187500.02235174447, 0.622, 0.168, 0.768, 192.0, 0.0, 0.0, 0.0, 0.0, 0.0, 0.0, 0.0, 0.0, 0.0, 1.7161973607390804E9, 0.0, 2024-05-20 12:29:20.739
223.0, -2363.0264238150626, -187500.02235174447, -187500.02235174447, -187500.02235174447, -187500.02235174447, -187500.02235174447, -187500.02235174447, -187500.02235174447, 0.622, 0.168, 0.768, 192.0, 0.0, 0.0, 0.0, 0.0, 0.0, 0.0, 0.0, 0.0, 0.0, 1.7161973607431111E9, 0.0, 2024-05-20 12:29:20.743
224.0, -2369.351967495915, -187500.02235174447, -187500.02235174447, -187500.02235174447, -187500.02235174447, -187500.02235174447, -187500.02235174447, -187500.02235174447, 0.622, 0.168, 0.768, 192.0, 0.0, 0.0, 0.0, 0.0, 0.0, 0.0, 0.0, 0.0, 0.0, 1.7161973607471309E9, 0.0, 2024-05-20 12:29:20.747
225.0, -2373.576447197968, -187500.02235174447, -187500.02235174447, -187500.02235174447, -187500.02235174447, -187500.02235174447, -187500.02235174447, -187500.02235174447, 0.622, 0.168, 0.768, 192.0, 0.0, 0.0, 0.0, 0.0, 0.0, 0.0, 0.0, 0.0, 0.0, 1.7161973607510943E9, 0.0, 2024-05-20 12:29:20.751
226.0, -2361.819429614476, -187500.02235174447, -187500.02235174447, -187500.02235174447, -187500.02235174447, -187500.02235174447, -187500.02235174447, -187500.02235174447, 0.622, 0.168, 0.768, 192.0, 0.0, 0.0, 0.0, 0.0, 0.0, 0.0, 0.0, 0.0, 0.0, 1.716197360755118E9, 0.0, 2024-05-20 12:29:20.755
227.0, -2340.3170514484705, -187500.02235174447, -187500.02235174447, -187500.02235174447, -187500.02235174447, -187500.02235174447, -187500.02235174447, -187500.02235174447, 0.622, 0.168, 0.768, 192.0, 0.0, 0.0, 0.0, 0.0, 0.0, 0.0, 0.0, 0.0, 0.0, 1.7161973607581446E9, 0.0, 2024-05-20 12:29:20.758
228.0, -2335.198501968205, -187500.02235174447, -187500.02235174447, -187500.02235174447, -187500.02235174447, -187500.02235174447, -187500.02235174447, -187500.02235174447, 0.622, 0.168, 0.768, 192.0, 0.0, 0.0, 0.0, 0.0, 0.0, 0.0, 0.0, 0.0, 0.0, 1.7161973607631736E9, 0.0, 2024-05-20 12:29:20.763
229.0, -2355.762106867088, -187500.02235174447, -187500.02235174447, -187500.02235174447, -187500.02235174447, -187500.02235174447, -187500.02235174447, -187500.02235174447, 0.622, 0.168, 0.768, 192.0, 0.0, 0.0, 0.0, 0.0, 0.0, 0.0, 0.0, 0.0, 0.0, 1.7161973607671635E9, 0.0, 2024-05-20 12:29:20.767
230.0, -2358.9360545797413, -187500.02235174447, -187500.02235174447, -187500.02235174447, -187500.02235174447, -187500.02235174447, -187500.02235174447, -187500.02235174447, 0.622, 0.168, 0.768, 192.0, 0.0, 0.0, 0.0, 0.0, 0.0, 0.0, 0.0, 0.0, 0.0, 1.716197360771176E9, 0.0, 2024-05-20 12:29:20.771
231.0, -2349.078935274951, -187500.02235174447, -187500.02235174447, -187500.02235174447, -187500.02235174447, -187500.02235174447, -187500.02235174447, -187500.02235174447, 0.624, 0.164, 0.768, 192.0, 19.0, 128.0, 5.0, 32.0, 24.0, 0.0, 0.0, 0.0, 0.0, 1.7161973607752352E9, 0.0, 2024-05-20 12:29:20.775
232.0, -2342.328708449448, -187500.02235174447, -187500.02235174447, -187500.02235174447, -187500.02235174447, -187500.02235174447, -187500.02235174447, -187500.02235174447, 0.624, 0.164, 0.768, 192.0, 0.0, 0.0, 0.0, 0.0, 0.0, 0.0, 0.0, 0.0, 0.0, 1.716197360778201E9, 0.0, 2024-05-20 12:29:20.778
233.0, -2325.3190309189595, -187500.02235174447, -187500.02235174447, -187500.02235174447, -187500.02235174447, -187500.02235174447, -187500.02235174447, -187500.02235174447, 0.624, 0.164, 0.768, 192.0, 0.0, 0.0, 0.0, 0.0, 0.0, 0.0, 0.0, 0.0, 0.0, 1.7161973607822535E9, 0.0, 2024-05-20 12:29:20.782
234.0, -2320.6698680722557, -187500.02235174447, -187500.02235174447, -187500.02235174447, -187500.02235174447, -187500.02235174447, -187500.02235174447, -187500.02235174447, 0.624, 0.164, 0.768, 192.0, 0.0, 0.0, 0.0, 0.0, 0.0, 0.0, 0.0, 0.0, 0.0, 1.7161973607862296E9, 0.0, 2024-05-20 12:29:20.786
235.0, -2333.790342067521, -187500.02235174447, -187500.02235174447, -187500.02235174447, -187500.02235174447, -187500.02235174447, -187500.02235174447, -187500.02235174447, 0.624, 0.164, 0.768, 192.0, 0.0, 0.0, 0.0, 0.0, 0.0, 0.0, 0.0, 0.0, 0.0, 1.7161973607912695E9, 0.0, 2024-05-20 12:29:20.791
236.0, -2348.0284032855516, -187500.02235174447, -187500.02235174447, -187500.02235174447, -187500.02235174447, -187500.02235174447, -187500.02235174447, -187500.02235174447, 0.624, 0.164, 0.768, 192.0, 0.0, 0.0, 0.0, 0.0, 0.0, 0.0, 0.0, 0.0, 0.0, 1.7161973607952647E9, 0.0, 2024-05-20 12:29:20.795
237.0, -2362.914665092786, -187500.02235174447, -187500.02235174447, -187500.02235174447, -187500.02235174447, -187500.02235174447, -187500.02235174447, -187500.02235174447, 0.624, 0.164, 0.768, 192.0, 0.0, 0.0, 0.0, 0.0, 0.0, 0.0, 0.0, 0.0, 0.0, 1.7161973607992775E9, 0.0, 2024-05-20 12:29:20.799
238.0, -2347.1343335073393, -187500.02235174447, -187500.02235174447, -187500.02235174447, -187500.02235174447, -187500.02235174447, -187500.02235174447, -187500.02235174447, 0.624, 0.164, 0.768, 192.0, 0.0, 0.0, 0.0, 0.0, 0.0, 0.0, 0.0, 0.0, 0.0, 1.7161973608023603E9, 0.0, 2024-05-20 12:29:20.802
239.0, -2339.6017956259006, -187500.02235174447, -187500.02235174447, -187500.02235174447, -187500.02235174447, -187500.02235174447, -187500.02235174447, -187500.02235174447, 0.624, 0.164, 0.768, 192.0, 0.0, 0.0, 0.0, 0.0, 0.0, 0.0, 0.0, 0.0, 0.0, 1.7161973608063452E9, 0.0, 2024-05-20 12:29:20.806
240.0, -2347.2237404851608, -187500.02235174447, -187500.02235174447, -187500.02235174447, -187500.02235174447, -187500.02235174447, -187500.02235174447, -187500.02235174447, 0.624, 0.164, 0.768, 192.0, 0.0, 0.0, 0.0, 0.0, 0.0, 0.0, 0.0, 0.0, 0.0, 1.7161973608103216E9, 0.0, 2024-05-20 12:29:20.810
241.0, -2367.474420961669, -187500.02235174447, -187500.02235174447, -187500.02235174447, -187500.02235174447, -187500.02235174447, -187500.02235174447, -187500.02235174447, 0.622, 0.166, 0.774, 192.0, 19.0, 112.0, 5.0, 48.0, 24.0, 48.0, 0.0, 0.0, 0.0, 1.7161973608143208E9, 0.0, 2024-05-20 12:29:20.814
242.0, -2378.0244443445736, -187500.02235174447, -187500.02235174447, -187500.02235174447, -187500.02235174447, -187500.02235174447, -187500.02235174447, -187500.02235174447, 0.622, 0.166, 0.774, 192.0, 0.0, 0.0, 0.0, 0.0, 0.0, 0.0, 0.0, 0.0, 0.0, 1.716197360818351E9, 0.0, 2024-05-20 12:29:20.818
243.0, -2369.731947151655, -187500.02235174447, -187500.02235174447, -187500.02235174447, -187500.02235174447, -187500.02235174447, -187500.02235174447, -187500.02235174447, 0.622, 0.166, 0.774, 192.0, 0.0, 0.0, 0.0, 0.0, 0.0, 0.0, 0.0, 0.0, 0.0, 1.7161973608233817E9, 0.0, 2024-05-20 12:29:20.823
244.0, -2360.8359528584424, -187500.02235174447, -187500.02235174447, -187500.02235174447, -187500.02235174447, -187500.02235174447, -187500.02235174447, -187500.02235174447, 0.622, 0.166, 0.774, 192.0, 0.0, 0.0, 0.0, 0.0, 0.0, 0.0, 0.0, 0.0, 0.0, 1.716197360827386E9, 0.0, 2024-05-20 12:29:20.827
245.0, -2355.0021475556073, -187500.02235174447, -187500.02235174447, -187500.02235174447, -187500.02235174447, -187500.02235174447, -187500.02235174447, -187500.02235174447, 0.622, 0.166, 0.774, 192.0, 0.0, 0.0, 0.0, 0.0, 0.0, 0.0, 0.0, 0.0, 0.0, 1.716197360830389E9, 0.0, 2024-05-20 12:29:20.830
246.0, -2354.175133010761, -187500.02235174447, -187500.02235174447, -187500.02235174447, -187500.02235174447, -187500.02235174447, -187500.02235174447, -187500.02235174447, 0.622, 0.166, 0.774, 192.0, 0.0, 0.0, 0.0, 0.0, 0.0, 0.0, 0.0, 0.0, 0.0, 1.7161973608343763E9, 0.0, 2024-05-20 12:29:20.834
247.0, -2357.237322001138, -187500.02235174447, -187500.02235174447, -187500.02235174447, -187500.02235174447, -187500.02235174447, -187500.02235174447, -187500.02235174447, 0.622, 0.166, 0.774, 192.0, 0.0, 0.0, 0.0, 0.0, 0.0, 0.0, 0.0, 0.0, 0.0, 1.7161973608384464E9, 0.0, 2024-05-20 12:29:20.838
248.0, -2350.241225986627, -187500.02235174447, -187500.02235174447, -187500.02235174447, -187500.02235174447, -187500.02235174447, -187500.02235174447, -187500.02235174447, 0.622, 0.166, 0.774, 192.0, 0.0, 0.0, 0.0, 0.0, 0.0, 0.0, 0.0, 0.0, 0.0, 1.71619736084241E9, 0.0, 2024-05-20 12:29:20.842
249.0, -2352.722269621166, -187500.02235174447, -187500.02235174447, -187500.02235174447, -187500.02235174447, -187500.02235174447, -187500.02235174447, -187500.02235174447, 0.622, 0.166, 0.774, 192.0, 0.0, 0.0, 0.0, 0.0, 0.0, 0.0, 0.0, 0.0, 0.0, 1.7161973608484893E9, 0.0, 2024-05-20 12:29:20.848
250.0, -2350.1294672643503, -187500.02235174447, -187500.02235174447, -187500.02235174447, -187500.02235174447, -187500.02235174447, -187500.02235174447, -187500.02235174447, 0.622, 0.166, 0.774, 192.0, 0.0, 0.0, 0.0, 0.0, 0.0, 0.0, 0.0, 0.0, 0.0, 1.7161973608514676E9, 0.0, 2024-05-20 12:29:20.851
251.0, -2348.184865496739, -187500.02235174447, -187500.02235174447, -187500.02235174447, -187500.02235174447, -187500.02235174447, -187500.02235174447, -187500.02235174447, 0.622, 0.164, 0.776, 192.0, 19.0, 112.0, 5.0, 32.0, 24.0, 64.0, 0.0, 0.0, 0.0, 1.7161973608566136E9, 0.0, 2024-05-20 12:29:20.856
252.0, -2343.111019505384, -187500.02235174447, -187500.02235174447, -187500.02235174447, -187500.02235174447, -187500.02235174447, -187500.02235174447, -187500.02235174447, 0.622, 0.164, 0.776, 192.0, 0.0, 0.0, 0.0, 0.0, 0.0, 0.0, 0.0, 0.0, 0.0, 1.7161973608595672E9, 0.0, 2024-05-20 12:29:20.859
253.0, -2348.0954585189174, -187500.02235174447, -187500.02235174447, -187500.02235174447, -187500.02235174447, -187500.02235174447, -187500.02235174447, -187500.02235174447, 0.622, 0.164, 0.776, 192.0, 0.0, 0.0, 0.0, 0.0, 0.0, 0.0, 0.0, 0.0, 0.0, 1.7161973608635652E9, 0.0, 2024-05-20 12:29:20.863
254.0, -2338.3277461919483, -187500.02235174447, -187500.02235174447, -187500.02235174447, -187500.02235174447, -187500.02235174447, -187500.02235174447, -187500.02235174447, 0.622, 0.164, 0.776, 192.0, 0.0, 0.0, 0.0, 0.0, 0.0, 0.0, 0.0, 0.0, 0.0, 1.7161973608665855E9, 0.0, 2024-05-20 12:29:20.866
255.0, -2353.079897532451, -187500.02235174447, -187500.02235174447, -187500.02235174447, -187500.02235174447, -187500.02235174447, -187500.02235174447, -187500.02235174447, 0.622, 0.164, 0.776, 192.0, 0.0, 0.0, 0.0, 0.0, 0.0, 0.0, 0.0, 0.0, 0.0, 1.716197360870582E9, 0.0, 2024-05-20 12:29:20.870
0.0, -2361.573560425468, -187500.02235174447, -187500.02235174447, -187500.02235174447, -187500.02235174447, -187500.02235174447, -187500.02235174447, -187500.02235174447, 0.622, 0.164, 0.776, 192.0, 0.0, 0.0, 0.0, 0.0, 0.0, 0.0, 0.0, 0.0, 0.0, 1.716197360874606E9, 0.0, 2024-05-20 12:29:20.874
1.0, -2361.9982435701186, -187500.02235174447, -187500.02235174447, -187500.02235174447, -187500.02235174447, -187500.02235174447, -187500.02235174447, -187500.02235174447, 0.622, 0.164, 0.776, 192.0, 0.0, 0.0, 0.0, 0.0, 0.0, 0.0, 0.0, 0.0, 0.0, 1.7161973608785875E9, 0.0, 2024-05-20 12:29:20.878
2.0, -2352.5434556655237, -187500.02235174447, -187500.02235174447, -187500.02235174447, -187500.02235174447, -187500.02235174447, -187500.02235174447, -187500.02235174447, 0.622, 0.164, 0.776, 192.0, 0.0, 0.0, 0.0, 0.0, 0.0, 0.0, 0.0, 0.0, 0.0, 1.71619736088363E9, 0.0, 2024-05-20 12:29:20.883
3.0, -2347.6484236298115, -187500.02235174447, -187500.02235174447, -187500.02235174447, -187500.02235174447, -187500.02235174447, -187500.02235174447, -187500.02235174447, 0.622, 0.164, 0.776, 192.0, 0.0, 0.0, 0.0, 0.0, 0.0, 0.0, 0.0, 0.0, 0.0, 1.7161973608865905E9, 0.0, 2024-05-20 12:29:20.886
4.0, -2353.8398568439316, -187500.02235174447, -187500.02235174447, -187500.02235174447, -187500.02235174447, -187500.02235174447, -187500.02235174447, -187500.02235174447, 0.622, 0.16, 0.774, 192.0, 19.0, 112.0, 5.0, 0.0, 24.0, 48.0, 0.0, 0.0, 0.0, 1.7161973608906772E9, 0.0, 2024-05-20 12:29:20.890
5.0, -2366.3121302499926, -187500.02235174447, -187500.02235174447, -187500.02235174447, -187500.02235174447, -187500.02235174447, -187500.02235174447, -187500.02235174447, 0.622, 0.16, 0.774, 192.0, 0.0, 0.0, 0.0, 0.0, 0.0, 0.0, 0.0, 0.0, 0.0, 1.7161973608956423E9, 0.0, 2024-05-20 12:29:20.895
6.0, -2363.272293004071, -187500.02235174447, -187500.02235174447, -187500.02235174447, -187500.02235174447, -187500.02235174447, -187500.02235174447, -187500.02235174447, 0.622, 0.16, 0.774, 192.0, 0.0, 0.0, 0.0, 0.0, 0.0, 0.0, 0.0, 0.0, 0.0, 1.716197360898638E9, 0.0, 2024-05-20 12:29:20.898
7.0, -2351.2694062315713, -187500.02235174447, -187500.02235174447, -187500.02235174447, -187500.02235174447, -187500.02235174447, -187500.02235174447, -187500.02235174447, 0.622, 0.16, 0.774, 192.0, 0.0, 0.0, 0.0, 0.0, 0.0, 0.0, 0.0, 0.0, 0.0, 1.7161973609026296E9, 0.0, 2024-05-20 12:29:20.902
8.0, -2353.2587114880935, -187500.02235174447, -187500.02235174447, -187500.02235174447, -187500.02235174447, -187500.02235174447, -187500.02235174447, -187500.02235174447, 0.622, 0.16, 0.774, 192.0, 0.0, 0.0, 0.0, 0.0, 0.0, 0.0, 0.0, 0.0, 0.0, 1.7161973609066725E9, 0.0, 2024-05-20 12:29:20.906
9.0, -2361.1265255363614, -187500.02235174447, -187500.02235174447, -187500.02235174447, -187500.02235174447, -187500.02235174447, -187500.02235174447, -187500.02235174447, 0.622, 0.16, 0.774, 192.0, 0.0, 0.0, 0.0, 0.0, 0.0, 0.0, 0.0, 0.0, 0.0, 1.7161973609116976E9, 0.0, 2024-05-20 12:29:20.911
10.0, -2346.0838015179397, -187500.02235174447, -187500.02235174447, -187500.02235174447, -187500.02235174447, -187500.02235174447, -187500.02235174447, -187500.02235174447, 0.622, 0.16, 0.774, 192.0, 0.0, 0.0, 0.0, 0.0, 0.0, 0.0, 0.0, 0.0, 0.0, 1.7161973609146993E9, 0.0, 2024-05-20 12:29:20.914
11.0, -2343.043964272018, -187500.02235174447, -187500.02235174447, -187500.02235174447, -187500.02235174447, -187500.02235174447, -187500.02235174447, -187500.02235174447, 0.622, 0.16, 0.774, 192.0, 0.0, 0.0, 0.0, 0.0, 0.0, 0.0, 0.0, 0.0, 0.0, 1.7161973609177115E9, 0.0, 2024-05-20 12:29:20.917
12.0, -2344.1839032392386, -187500.02235174447, -187500.02235174447, -187500.02235174447, -187500.02235174447, -187500.02235174447, -187500.02235174447, -187500.02235174447, 0.622, 0.16, 0.774, 192.0, 0.0, 0.0, 0.0, 0.0, 0.0, 0.0, 0.0, 0.0, 0.0, 1.7161973609227722E9, 0.0, 2024-05-20 12:29:20.922
13.0, -2344.7426968506215, -187500.02235174447, -187500.02235174447, -187500.02235174447, -187500.02235174447, -187500.02235174447, -187500.02235174447, -187500.02235174447, 0.622, 0.16, 0.774, 192.0, 0.0, 0.0, 0.0, 0.0, 0.0, 0.0, 0.0, 0.0, 0.0, 1.7161973609267623E9, 0.0, 2024-05-20 12:29:20.926
14.0, -2344.3850689393366, -187500.02235174447, -187500.02235174447, -187500.02235174447, -187500.02235174447, -187500.02235174447, -187500.02235174447, -187500.02235174447, 0.62, 0.162, 0.772, 192.0, 19.0, 96.0, 5.0, 16.0, 24.0, 32.0, 0.0, 0.0, 0.0, 1.716197360932772E9, 0.0, 2024-05-20 12:29:20.932
15.0, -2347.0672782739734, -187500.02235174447, -187500.02235174447, -187500.02235174447, -187500.02235174447, -187500.02235174447, -187500.02235174447, -187500.02235174447, 0.62, 0.162, 0.772, 192.0, 0.0, 0.0, 0.0, 0.0, 0.0, 0.0, 0.0, 0.0, 0.0, 1.7161973609357924E9, 0.0, 2024-05-20 12:29:20.935
16.0, -2339.2441677146157, -187500.02235174447, -187500.02235174447, -187500.02235174447, -187500.02235174447, -187500.02235174447, -187500.02235174447, -187500.02235174447, 0.62, 0.162, 0.772, 192.0, 0.0, 0.0, 0.0, 0.0, 0.0, 0.0, 0.0, 0.0, 0.0, 1.71619736093879E9, 0.0, 2024-05-20 12:29:20.938
17.0, -2349.7718393530654, -187500.02235174447, -187500.02235174447, -187500.02235174447, -187500.02235174447, -187500.02235174447, -187500.02235174447, -187500.02235174447, 0.62, 0.162, 0.772, 192.0, 0.0, 0.0, 0.0, 0.0, 0.0, 0.0, 0.0, 0.0, 0.0, 1.716197360941804E9, 0.0, 2024-05-20 12:29:20.941
18.0, -2360.1206970358726, -187500.02235174447, -187500.02235174447, -187500.02235174447, -187500.02235174447, -187500.02235174447, -187500.02235174447, -187500.02235174447, 0.62, 0.162, 0.772, 192.0, 0.0, 0.0, 0.0, 0.0, 0.0, 0.0, 0.0, 0.0, 0.0, 1.7161973609458225E9, 0.0, 2024-05-20 12:29:20.945
19.0, -2362.624092414867, -187500.02235174447, -187500.02235174447, -187500.02235174447, -187500.02235174447, -187500.02235174447, -187500.02235174447, -187500.02235174447, 0.62, 0.162, 0.772, 192.0, 0.0, 0.0, 0.0, 0.0, 0.0, 0.0, 0.0, 0.0, 0.0, 1.716197360949841E9, 0.0, 2024-05-20 12:29:20.949
20.0, -2357.4831911901465, -187500.02235174447, -187500.02235174447, -187500.02235174447, -187500.02235174447, -187500.02235174447, -187500.02235174447, -187500.02235174447, 0.62, 0.162, 0.772, 192.0, 0.0, 0.0, 0.0, 0.0, 0.0, 0.0, 0.0, 0.0, 0.0, 1.7161973609548495E9, 0.0, 2024-05-20 12:29:20.954
21.0, -2358.980758068652, -187500.02235174447, -187500.02235174447, -187500.02235174447, -187500.02235174447, -187500.02235174447, -187500.02235174447, -187500.02235174447, 0.62, 0.162, 0.772, 192.0, 0.0, 0.0, 0.0, 0.0, 0.0, 0.0, 0.0, 0.0, 0.0, 1.7161973609588869E9, 0.0, 2024-05-20 12:29:20.958
22.0, -2360.27715924706, -187500.02235174447, -187500.02235174447, -187500.02235174447, -187500.02235174447, -187500.02235174447, -187500.02235174447, -187500.02235174447, 0.62, 0.162, 0.772, 192.0, 0.0, 0.0, 0.0, 0.0, 0.0, 0.0, 0.0, 0.0, 0.0, 1.7161973609628975E9, 0.0, 2024-05-20 12:29:20.962
23.0, -2352.2752347320597, -187500.02235174447, -187500.02235174447, -187500.02235174447, -187500.02235174447, -187500.02235174447, -187500.02235174447, -187500.02235174447, 0.62, 0.162, 0.772, 192.0, 0.0, 0.0, 0.0, 0.0, 0.0, 0.0, 0.0, 0.0, 0.0, 1.7161973609658968E9, 0.0, 2024-05-20 12:29:20.965
24.0, -2354.398650455314, -187500.02235174447, -187500.02235174447, -187500.02235174447, -187500.02235174447, -187500.02235174447, -187500.02235174447, -187500.02235174447, 0.622, 0.162, 0.774, 192.0, 19.0, 112.0, 5.0, 16.0, 24.0, 48.0, 0.0, 0.0, 0.0, 1.7161973609709291E9, 0.0, 2024-05-20 12:29:20.970
25.0, -2340.0935340039177, -187500.02235174447, -187500.02235174447, -187500.02235174447, -187500.02235174447, -187500.02235174447, -187500.02235174447, -187500.02235174447, 0.622, 0.162, 0.774, 192.0, 0.0, 0.0, 0.0, 0.0, 0.0, 0.0, 0.0, 0.0, 0.0, 1.7161973609749343E9, 0.0, 2024-05-20 12:29:20.974
26.0, -2332.4492374002025, -187500.02235174447, -187500.02235174447, -187500.02235174447, -187500.02235174447, -187500.02235174447, -187500.02235174447, -187500.02235174447, 0.622, 0.162, 0.774, 192.0, 0.0, 0.0, 0.0, 0.0, 0.0, 0.0, 0.0, 0.0, 0.0, 1.7161973609779177E9, 0.0, 2024-05-20 12:29:20.977
27.0, -2334.2597287010826, -187500.02235174447, -187500.02235174447, -187500.02235174447, -187500.02235174447, -187500.02235174447, -187500.02235174447, -187500.02235174447, 0.622, 0.162, 0.774, 192.0, 0.0, 0.0, 0.0, 0.0, 0.0, 0.0, 0.0, 0.0, 0.0, 1.7161973609831216E9, 0.0, 2024-05-20 12:29:20.983
28.0, -2342.1498944938057, -187500.02235174447, -187500.02235174447, -187500.02235174447, -187500.02235174447, -187500.02235174447, -187500.02235174447, -187500.02235174447, 0.622, 0.162, 0.774, 192.0, 0.0, 0.0, 0.0, 0.0, 0.0, 0.0, 0.0, 0.0, 0.0, 1.716197360986974E9, 0.0, 2024-05-20 12:29:20.986
29.0, -2342.351060193904, -187500.02235174447, -187500.02235174447, -187500.02235174447, -187500.02235174447, -187500.02235174447, -187500.02235174447, -187500.02235174447, 0.622, 0.162, 0.774, 192.0, 0.0, 0.0, 0.0, 0.0, 0.0, 0.0, 0.0, 0.0, 0.0, 1.7161973609909928E9, 0.0, 2024-05-20 12:29:20.990
30.0, -2313.2937924020043, -187500.02235174447, -187500.02235174447, -187500.02235174447, -187500.02235174447, -187500.02235174447, -187500.02235174447, -187500.02235174447, 0.622, 0.162, 0.774, 192.0, 0.0, 0.0, 0.0, 0.0, 0.0, 0.0, 0.0, 0.0, 0.0, 1.71619736099502E9, 0.0, 2024-05-20 12:29:20.995
31.0, -2318.3676383933594, -187500.02235174447, -187500.02235174447, -187500.02235174447, -187500.02235174447, -187500.02235174447, -187500.02235174447, -187500.02235174447, 0.622, 0.162, 0.774, 192.0, 0.0, 0.0, 0.0, 0.0, 0.0, 0.0, 0.0, 0.0, 0.0, 1.7161973609980192E9, 0.0, 2024-05-20 12:29:20.998
32.0, -2331.309298432982, -187500.02235174447, -187500.02235174447, -187500.02235174447, -187500.02235174447, -187500.02235174447, -187500.02235174447, -187500.02235174447, 0.622, 0.162, 0.774, 192.0, 0.0, 0.0, 0.0, 0.0, 0.0, 0.0, 0.0, 0.0, 0.0, 1.7161973610020633E9, 0.0, 2024-05-20 12:29:21.002
33.0, -2348.117810263373, -187500.02235174447, -187500.02235174447, -187500.02235174447, -187500.02235174447, -187500.02235174447, -187500.02235174447, -187500.02235174447, 0.622, 0.162, 0.774, 192.0, 0.0, 0.0, 0.0, 0.0, 0.0, 0.0, 0.0, 0.0, 0.0, 1.7161973610060914E9, 0.0, 2024-05-20 12:29:21.006
34.0, -2324.3132024184706, -187500.02235174447, -187500.02235174447, -187500.02235174447, -187500.02235174447, -187500.02235174447, -187500.02235174447, -187500.02235174447, 0.626, 0.162, 0.774, 192.0, 19.0, 144.0, 5.0, 16.0, 24.0, 48.0, 0.0, 0.0, 0.0, 1.7161973610100613E9, 0.0, 2024-05-20 12:29:21.010
35.0, -2299.5921730509012, -187500.02235174447, -187500.02235174447, -187500.02235174447, -187500.02235174447, -187500.02235174447, -187500.02235174447, -187500.02235174447, 0.626, 0.162, 0.774, 192.0, 0.0, 0.0, 0.0, 0.0, 0.0, 0.0, 0.0, 0.0, 0.0, 1.716197361016082E9, 0.0, 2024-05-20 12:29:21.016
36.0, -2311.416245867759, -187500.02235174447, -187500.02235174447, -187500.02235174447, -187500.02235174447, -187500.02235174447, -187500.02235174447, -187500.02235174447, 0.626, 0.162, 0.774, 192.0, 0.0, 0.0, 0.0, 0.0, 0.0, 0.0, 0.0, 0.0, 0.0, 1.7161973610192623E9, 0.0, 2024-05-20 12:29:21.019
37.0, -2313.0926267019067, -187500.02235174447, -187500.02235174447, -187500.02235174447, -187500.02235174447, -187500.02235174447, -187500.02235174447, -187500.02235174447, 0.626, 0.162, 0.774, 192.0, 0.0, 0.0, 0.0, 0.0, 0.0, 0.0, 0.0, 0.0, 0.0, 1.7161973610221004E9, 0.0, 2024-05-20 12:29:21.022
38.0, -2321.049847727996, -187500.02235174447, -187500.02235174447, -187500.02235174447, -187500.02235174447, -187500.02235174447, -187500.02235174447, -187500.02235174447, 0.626, 0.162, 0.774, 192.0, 0.0, 0.0, 0.0, 0.0, 0.0, 0.0, 0.0, 0.0, 0.0, 1.7161973610261345E9, 0.0, 2024-05-20 12:29:21.026
39.0, -2328.694144331711, -187500.02235174447, -187500.02235174447, -187500.02235174447, -187500.02235174447, -187500.02235174447, -187500.02235174447, -187500.02235174447, 0.626, 0.162, 0.774, 192.0, 0.0, 0.0, 0.0, 0.0, 0.0, 0.0, 0.0, 0.0, 0.0, 1.7161973610301287E9, 0.0, 2024-05-20 12:29:21.030
40.0, -2315.9089465032753, -187500.02235174447, -187500.02235174447, -187500.02235174447, -187500.02235174447, -187500.02235174447, -187500.02235174447, -187500.02235174447, 0.626, 0.162, 0.774, 192.0, 0.0, 0.0, 0.0, 0.0, 0.0, 0.0, 0.0, 0.0, 0.0, 1.7161973610341682E9, 0.0, 2024-05-20 12:29:21.034
41.0, -2300.016856195552, -187500.02235174447, -187500.02235174447, -187500.02235174447, -187500.02235174447, -187500.02235174447, -187500.02235174447, -187500.02235174447, 0.626, 0.162, 0.774, 192.0, 0.0, 0.0, 0.0, 0.0, 0.0, 0.0, 0.0, 0.0, 0.0, 1.7161973610382297E9, 0.0, 2024-05-20 12:29:21.038
42.0, -2294.563030548457, -187500.02235174447, -187500.02235174447, -187500.02235174447, -187500.02235174447, -187500.02235174447, -187500.02235174447, -187500.02235174447, 0.626, 0.162, 0.774, 192.0, 0.0, 0.0, 0.0, 0.0, 0.0, 0.0, 0.0, 0.0, 0.0, 1.7161973610422273E9, 0.0, 2024-05-20 12:29:21.042
43.0, -2306.208289409672, -187500.02235174447, -187500.02235174447, -187500.02235174447, -187500.02235174447, -187500.02235174447, -187500.02235174447, -187500.02235174447, 0.622, 0.166, 0.772, 192.0, 19.0, 112.0, 5.0, 48.0, 24.0, 32.0, 0.0, 0.0, 0.0, 1.716197361047242E9, 0.0, 2024-05-20 12:29:21.047
44.0, -2308.734036533122, -187500.02235174447, -187500.02235174447, -187500.02235174447, -187500.02235174447, -187500.02235174447, -187500.02235174447, -187500.02235174447, 0.622, 0.166, 0.772, 192.0, 0.0, 0.0, 0.0, 0.0, 0.0, 0.0, 0.0, 0.0, 0.0, 1.7161973610501919E9, 0.0, 2024-05-20 12:29:21.050
45.0, -2302.050864940985, -187500.02235174447, -187500.02235174447, -187500.02235174447, -187500.02235174447, -187500.02235174447, -187500.02235174447, -187500.02235174447, 0.622, 0.166, 0.772, 192.0, 0.0, 0.0, 0.0, 0.0, 0.0, 0.0, 0.0, 0.0, 0.0, 1.7161973610542188E9, 0.0, 2024-05-20 12:29:21.054
46.0, -2282.6048472648677, -187500.02235174447, -187500.02235174447, -187500.02235174447, -187500.02235174447, -187500.02235174447, -187500.02235174447, -187500.02235174447, 0.622, 0.166, 0.772, 192.0, 0.0, 0.0, 0.0, 0.0, 0.0, 0.0, 0.0, 0.0, 0.0, 1.7161973610584E9, 0.0, 2024-05-20 12:29:21.058
47.0, -2285.041187410496, -187500.02235174447, -187500.02235174447, -187500.02235174447, -187500.02235174447, -187500.02235174447, -187500.02235174447, -187500.02235174447, 0.622, 0.166, 0.772, 192.0, 0.0, 0.0, 0.0, 0.0, 0.0, 0.0, 0.0, 0.0, 0.0, 1.7161973610622437E9, 0.0, 2024-05-20 12:29:21.062
48.0, -2286.4493473111806, -187500.02235174447, -187500.02235174447, -187500.02235174447, -187500.02235174447, -187500.02235174447, -187500.02235174447, -187500.02235174447, 0.622, 0.166, 0.772, 192.0, 0.0, 0.0, 0.0, 0.0, 0.0, 0.0, 0.0, 0.0, 0.0, 1.716197361066268E9, 0.0, 2024-05-20 12:29:21.066
49.0, -2298.02755093903, -187500.02235174447, -187500.02235174447, -187500.02235174447, -187500.02235174447, -187500.02235174447, -187500.02235174447, -187500.02235174447, 0.622, 0.166, 0.772, 192.0, 0.0, 0.0, 0.0, 0.0, 0.0, 0.0, 0.0, 0.0, 0.0, 1.71619736107029E9, 0.0, 2024-05-20 12:29:21.070
50.0, -2284.303579843471, -187500.02235174447, -187500.02235174447, -187500.02235174447, -187500.02235174447, -187500.02235174447, -187500.02235174447, -187500.02235174447, 0.622, 0.166, 0.772, 192.0, 0.0, 0.0, 0.0, 0.0, 0.0, 0.0, 0.0, 0.0, 0.0, 1.7161973610753336E9, 0.0, 2024-05-20 12:29:21.075
51.0, -2270.691367470189, -187500.02235174447, -187500.02235174447, -187500.02235174447, -187500.02235174447, -187500.02235174447, -187500.02235174447, -187500.02235174447, 0.622, 0.166, 0.772, 192.0, 0.0, 0.0, 0.0, 0.0, 0.0, 0.0, 0.0, 0.0, 0.0, 1.7161973610793245E9, 0.0, 2024-05-20 12:29:21.079
52.0, -2255.3580707738483, -187500.02235174447, -187500.02235174447, -187500.02235174447, -187500.02235174447, -187500.02235174447, -187500.02235174447, -187500.02235174447, 0.622, 0.166, 0.772, 192.0, 0.0, 0.0, 0.0, 0.0, 0.0, 0.0, 0.0, 0.0, 0.0, 1.7161973610823405E9, 0.0, 2024-05-20 12:29:21.082
53.0, -2276.189896606195, -187500.02235174447, -187500.02235174447, -187500.02235174447, -187500.02235174447, -187500.02235174447, -187500.02235174447, -187500.02235174447, 0.616, 0.164, 0.772, 192.0, 19.0, 64.0, 5.0, 32.0, 24.0, 32.0, 0.0, 0.0, 0.0, 1.7161973610873237E9, 0.0, 2024-05-20 12:29:21.087
54.0, -2273.5523907604684, -187500.02235174447, -187500.02235174447, -187500.02235174447, -187500.02235174447, -187500.02235174447, -187500.02235174447, -187500.02235174447, 0.616, 0.164, 0.772, 192.0, 0.0, 0.0, 0.0, 0.0, 0.0, 0.0, 0.0, 0.0, 0.0, 1.7161973610913944E9, 0.0, 2024-05-20 12:29:21.091
55.0, -2258.4649632531364, -187500.02235174447, -187500.02235174447, -187500.02235174447, -187500.02235174447, -187500.02235174447, -187500.02235174447, -187500.02235174447, 0.616, 0.164, 0.772, 192.0, 0.0, 0.0, 0.0, 0.0, 0.0, 0.0, 0.0, 0.0, 0.0, 1.716197361094509E9, 0.0, 2024-05-20 12:29:21.094
56.0, -2256.699175441167, -187500.02235174447, -187500.02235174447, -187500.02235174447, -187500.02235174447, -187500.02235174447, -187500.02235174447, -187500.02235174447, 0.616, 0.164, 0.772, 192.0, 0.0, 0.0, 0.0, 0.0, 0.0, 0.0, 0.0, 0.0, 0.0, 1.7161973610984457E9, 0.0, 2024-05-20 12:29:21.098
57.0, -2240.672974666712, -187500.02235174447, -187500.02235174447, -187500.02235174447, -187500.02235174447, -187500.02235174447, -187500.02235174447, -187500.02235174447, 0.616, 0.164, 0.772, 192.0, 0.0, 0.0, 0.0, 0.0, 0.0, 0.0, 0.0, 0.0, 0.0, 1.7161973611014237E9, 0.0, 2024-05-20 12:29:21.101
58.0, -2235.532073441991, -187500.02235174447, -187500.02235174447, -187500.02235174447, -187500.02235174447, -187500.02235174447, -187500.02235174447, -187500.02235174447, 0.616, 0.164, 0.772, 192.0, 0.0, 0.0, 0.0, 0.0, 0.0, 0.0, 0.0, 0.0, 0.0, 1.7161973611054256E9, 0.0, 2024-05-20 12:29:21.105
59.0, -2243.019907834519, -187500.02235174447, -187500.02235174447, -187500.02235174447, -187500.02235174447, -187500.02235174447, -187500.02235174447, -187500.02235174447, 0.616, 0.164, 0.772, 192.0, 0.0, 0.0, 0.0, 0.0, 0.0, 0.0, 0.0, 0.0, 0.0, 1.7161973611094444E9, 0.0, 2024-05-20 12:29:21.109
60.0, -2237.0296403204966, -187500.02235174447, -187500.02235174447, -187500.02235174447, -187500.02235174447, -187500.02235174447, -187500.02235174447, -187500.02235174447, 0.616, 0.164, 0.772, 192.0, 0.0, 0.0, 0.0, 0.0, 0.0, 0.0, 0.0, 0.0, 0.0, 1.7161973611144729E9, 0.0, 2024-05-20 12:29:21.114
61.0, -2234.1686170302173, -187500.02235174447, -187500.02235174447, -187500.02235174447, -187500.02235174447, -187500.02235174447, -187500.02235174447, -187500.02235174447, 0.616, 0.164, 0.772, 192.0, 0.0, 0.0, 0.0, 0.0, 0.0, 0.0, 0.0, 0.0, 0.0, 1.7161973611185668E9, 0.0, 2024-05-20 12:29:21.118
62.0, -2234.146265285762, -187500.02235174447, -187500.02235174447, -187500.02235174447, -187500.02235174447, -187500.02235174447, -187500.02235174447, -187500.02235174447, 0.616, 0.164, 0.772, 192.0, 0.0, 0.0, 0.0, 0.0, 0.0, 0.0, 0.0, 0.0, 0.0, 1.7161973611225293E9, 0.0, 2024-05-20 12:29:21.122
63.0, -2223.43977969167, -187500.02235174447, -187500.02235174447, -187500.02235174447, -187500.02235174447, -187500.02235174447, -187500.02235174447, -187500.02235174447, 0.622, 0.162, 0.768, 192.0, 19.0, 112.0, 5.0, 16.0, 24.0, 0.0, 0.0, 0.0, 0.0, 1.7161973611265466E9, 0.0, 2024-05-20 12:29:21.126
64.0, -2216.935422055176, -187500.02235174447, -187500.02235174447, -187500.02235174447, -187500.02235174447, -187500.02235174447, -187500.02235174447, -187500.02235174447, 0.622, 0.162, 0.768, 192.0, 0.0, 0.0, 0.0, 0.0, 0.0, 0.0, 0.0, 0.0, 0.0, 1.716197361129574E9, 0.0, 2024-05-20 12:29:21.129
65.0, -2220.087018023374, -187500.02235174447, -187500.02235174447, -187500.02235174447, -187500.02235174447, -187500.02235174447, -187500.02235174447, -187500.02235174447, 0.622, 0.162, 0.768, 192.0, 0.0, 0.0, 0.0, 0.0, 0.0, 0.0, 0.0, 0.0, 0.0, 1.7161973611336305E9, 0.0, 2024-05-20 12:29:21.133
66.0, -2204.1278724822846, -187500.02235174447, -187500.02235174447, -187500.02235174447, -187500.02235174447, -187500.02235174447, -187500.02235174447, -187500.02235174447, 0.622, 0.162, 0.768, 192.0, 0.0, 0.0, 0.0, 0.0, 0.0, 0.0, 0.0, 0.0, 0.0, 1.716197361137561E9, 0.0, 2024-05-20 12:29:21.137
67.0, -2195.3212851668936, -187500.02235174447, -187500.02235174447, -187500.02235174447, -187500.02235174447, -187500.02235174447, -187500.02235174447, -187500.02235174447, 0.622, 0.162, 0.768, 192.0, 0.0, 0.0, 0.0, 0.0, 0.0, 0.0, 0.0, 0.0, 0.0, 1.7161973611425972E9, 0.0, 2024-05-20 12:29:21.142
68.0, -2201.6244771032902, -187500.02235174447, -187500.02235174447, -187500.02235174447, -187500.02235174447, -187500.02235174447, -187500.02235174447, -187500.02235174447, 0.622, 0.162, 0.768, 192.0, 0.0, 0.0, 0.0, 0.0, 0.0, 0.0, 0.0, 0.0, 0.0, 1.7161973611466076E9, 0.0, 2024-05-20 12:29:21.146
69.0, -2200.1269102247848, -187500.02235174447, -187500.02235174447, -187500.02235174447, -187500.02235174447, -187500.02235174447, -187500.02235174447, -187500.02235174447, 0.622, 0.162, 0.768, 192.0, 0.0, 0.0, 0.0, 0.0, 0.0, 0.0, 0.0, 0.0, 0.0, 1.7161973611506064E9, 0.0, 2024-05-20 12:29:21.150
70.0, -2191.186212442662, -187500.02235174447, -187500.02235174447, -187500.02235174447, -187500.02235174447, -187500.02235174447, -187500.02235174447, -187500.02235174447, 0.622, 0.162, 0.768, 192.0, 0.0, 0.0, 0.0, 0.0, 0.0, 0.0, 0.0, 0.0, 0.0, 1.7161973611546185E9, 0.0, 2024-05-20 12:29:21.154
71.0, -2175.0929564348407, -187500.02235174447, -187500.02235174447, -187500.02235174447, -187500.02235174447, -187500.02235174447, -187500.02235174447, -187500.02235174447, 0.622, 0.162, 0.768, 192.0, 0.0, 0.0, 0.0, 0.0, 0.0, 0.0, 0.0, 0.0, 0.0, 1.7161973611586208E9, 0.0, 2024-05-20 12:29:21.158
72.0, -2164.900560963221, -187500.02235174447, -187500.02235174447, -187500.02235174447, -187500.02235174447, -187500.02235174447, -187500.02235174447, -187500.02235174447, 0.622, 0.162, 0.768, 192.0, 0.0, 0.0, 0.0, 0.0, 0.0, 0.0, 0.0, 0.0, 0.0, 1.7161973611626275E9, 0.0, 2024-05-20 12:29:21.162
73.0, -2186.2688286624943, -187500.02235174447, -187500.02235174447, -187500.02235174447, -187500.02235174447, -187500.02235174447, -187500.02235174447, -187500.02235174447, 0.62, 0.164, 0.768, 192.0, 19.0, 96.0, 5.0, 32.0, 24.0, 0.0, 0.0, 0.0, 0.0, 1.7161973611666276E9, 0.0, 2024-05-20 12:29:21.166
74.0, -2180.5244303374807, -187500.02235174447, -187500.02235174447, -187500.02235174447, -187500.02235174447, -187500.02235174447, -187500.02235174447, -187500.02235174447, 0.62, 0.164, 0.768, 192.0, 0.0, 0.0, 0.0, 0.0, 0.0, 0.0, 0.0, 0.0, 0.0, 1.716197361169746E9, 0.0, 2024-05-20 12:29:21.169
75.0, -2175.38352911276, -187500.02235174447, -187500.02235174447, -187500.02235174447, -187500.02235174447, -187500.02235174447, -187500.02235174447, -187500.02235174447, 0.62, 0.164, 0.768, 192.0, 0.0, 0.0, 0.0, 0.0, 0.0, 0.0, 0.0, 0.0, 0.0, 1.716197361175686E9, 0.0, 2024-05-20 12:29:21.175
76.0, -2180.0103402150085, -187500.02235174447, -187500.02235174447, -187500.02235174447, -187500.02235174447, -187500.02235174447, -187500.02235174447, -187500.02235174447, 0.62, 0.164, 0.768, 192.0, 0.0, 0.0, 0.0, 0.0, 0.0, 0.0, 0.0, 0.0, 0.0, 1.7161973611797097E9, 0.0, 2024-05-20 12:29:21.179
77.0, -2185.933552495665, -187500.02235174447, -187500.02235174447, -187500.02235174447, -187500.02235174447, -187500.02235174447, -187500.02235174447, -187500.02235174447, 0.62, 0.164, 0.768, 192.0, 0.0, 0.0, 0.0, 0.0, 0.0, 0.0, 0.0, 0.0, 0.0, 1.7161973611837254E9, 0.0, 2024-05-20 12:29:21.183
78.0, -2197.9811427570753, -187500.02235174447, -187500.02235174447, -187500.02235174447, -187500.02235174447, -187500.02235174447, -187500.02235174447, -187500.02235174447, 0.62, 0.164, 0.768, 192.0, 0.0, 0.0, 0.0, 0.0, 0.0, 0.0, 0.0, 0.0, 0.0, 1.7161973611877441E9, 0.0, 2024-05-20 12:29:21.187
79.0, -2200.1716137136955, -187500.02235174447, -187500.02235174447, -187500.02235174447, -187500.02235174447, -187500.02235174447, -187500.02235174447, -187500.02235174447, 0.62, 0.164, 0.768, 192.0, 0.0, 0.0, 0.0, 0.0, 0.0, 0.0, 0.0, 0.0, 0.0, 1.716197361190781E9, 0.0, 2024-05-20 12:29:21.190
80.0, -2200.1045584803296, -187500.02235174447, -187500.02235174447, -187500.02235174447, -187500.02235174447, -187500.02235174447, -187500.02235174447, -187500.02235174447, 0.62, 0.164, 0.768, 192.0, 0.0, 0.0, 0.0, 0.0, 0.0, 0.0, 0.0, 0.0, 0.0, 1.7161973611947758E9, 0.0, 2024-05-20 12:29:21.194
81.0, -2198.249363690539, -187500.02235174447, -187500.02235174447, -187500.02235174447, -187500.02235174447, -187500.02235174447, -187500.02235174447, -187500.02235174447, 0.62, 0.164, 0.768, 192.0, 0.0, 0.0, 0.0, 0.0, 0.0, 0.0, 0.0, 0.0, 0.0, 1.7161973611977792E9, 0.0, 2024-05-20 12:29:21.197
82.0, -2192.3708548987934, -187500.02235174447, -187500.02235174447, -187500.02235174447, -187500.02235174447, -187500.02235174447, -187500.02235174447, -187500.02235174447, 0.62, 0.164, 0.768, 192.0, 0.0, 0.0, 0.0, 0.0, 0.0, 0.0, 0.0, 0.0, 0.0, 1.7161973612017868E9, 0.0, 2024-05-20 12:29:21.201
83.0, -2185.352407139827, -187500.02235174447, -187500.02235174447, -187500.02235174447, -187500.02235174447, -187500.02235174447, -187500.02235174447, -187500.02235174447, 0.62, 0.152, 0.762, 192.0, 19.0, 96.0, 4.0, 192.0, 23.0, 208.0, 0.0, 0.0, 0.0, 1.716197361206824E9, 0.0, 2024-05-20 12:29:21.206
84.0, -2171.7178430220897, -187500.02235174447, -187500.02235174447, -187500.02235174447, -187500.02235174447, -187500.02235174447, -187500.02235174447, -187500.02235174447, 0.62, 0.152, 0.762, 192.0, 0.0, 0.0, 0.0, 0.0, 0.0, 0.0, 0.0, 0.0, 0.0, 1.7161973612098343E9, 0.0, 2024-05-20 12:29:21.209
85.0, -2172.634264544757, -187500.02235174447, -187500.02235174447, -187500.02235174447, -187500.02235174447, -187500.02235174447, -187500.02235174447, -187500.02235174447, 0.62, 0.152, 0.762, 192.0, 0.0, 0.0, 0.0, 0.0, 0.0, 0.0, 0.0, 0.0, 0.0, 1.7161973612138646E9, 0.0, 2024-05-20 12:29:21.213
86.0, -2167.9851016980533, -187500.02235174447, -187500.02235174447, -187500.02235174447, -187500.02235174447, -187500.02235174447, -187500.02235174447, -187500.02235174447, 0.62, 0.152, 0.762, 192.0, 0.0, 0.0, 0.0, 0.0, 0.0, 0.0, 0.0, 0.0, 0.0, 1.716197361217864E9, 0.0, 2024-05-20 12:29:21.217
87.0, -2159.737307994045, -187500.02235174447, -187500.02235174447, -187500.02235174447, -187500.02235174447, -187500.02235174447, -187500.02235174447, -187500.02235174447, 0.62, 0.152, 0.762, 192.0, 0.0, 0.0, 0.0, 0.0, 0.0, 0.0, 0.0, 0.0, 0.0, 1.7161973612219343E9, 0.0, 2024-05-20 12:29:21.221
88.0, -2165.481706319059, -187500.02235174447, -187500.02235174447, -187500.02235174447, -187500.02235174447, -187500.02235174447, -187500.02235174447, -187500.02235174447, 0.62, 0.152, 0.762, 192.0, 0.0, 0.0, 0.0, 0.0, 0.0, 0.0, 0.0, 0.0, 0.0, 1.716197361226074E9, 0.0, 2024-05-20 12:29:21.226
89.0, -2168.2086191426065, -187500.02235174447, -187500.02235174447, -187500.02235174447, -187500.02235174447, -187500.02235174447, -187500.02235174447, -187500.02235174447, 0.62, 0.152, 0.762, 192.0, 0.0, 0.0, 0.0, 0.0, 0.0, 0.0, 0.0, 0.0, 0.0, 1.7161973612298932E9, 0.0, 2024-05-20 12:29:21.229
90.0, -2158.865589960288, -187500.02235174447, -187500.02235174447, -187500.02235174447, -187500.02235174447, -187500.02235174447, -187500.02235174447, -187500.02235174447, 0.62, 0.152, 0.762, 192.0, 0.0, 0.0, 0.0, 0.0, 0.0, 0.0, 0.0, 0.0, 0.0, 1.7161973612349484E9, 0.0, 2024-05-20 12:29:21.234
91.0, -2157.1892091261398, -187500.02235174447, -187500.02235174447, -187500.02235174447, -187500.02235174447, -187500.02235174447, -187500.02235174447, -187500.02235174447, 0.62, 0.152, 0.762, 192.0, 0.0, 0.0, 0.0, 0.0, 0.0, 0.0, 0.0, 0.0, 0.0, 1.716197361237982E9, 0.0, 2024-05-20 12:29:21.237
92.0, -2161.0337091724527, -187500.02235174447, -187500.02235174447, -187500.02235174447, -187500.02235174447, -187500.02235174447, -187500.02235174447, -187500.02235174447, 0.624, 0.156, 0.76, 192.0, 19.0, 128.0, 4.0, 224.0, 23.0, 192.0, 0.0, 0.0, 0.0, 1.716197361240965E9, 0.0, 2024-05-20 12:29:21.240
93.0, -2152.115363134785, -187500.02235174447, -187500.02235174447, -187500.02235174447, -187500.02235174447, -187500.02235174447, -187500.02235174447, -187500.02235174447, 0.624, 0.156, 0.76, 192.0, 0.0, 0.0, 0.0, 0.0, 0.0, 0.0, 0.0, 0.0, 0.0, 1.716197361245974E9, 0.0, 2024-05-20 12:29:21.245
94.0, -2156.6527672592124, -187500.02235174447, -187500.02235174447, -187500.02235174447, -187500.02235174447, -187500.02235174447, -187500.02235174447, -187500.02235174447, 0.624, 0.156, 0.76, 192.0, 0.0, 0.0, 0.0, 0.0, 0.0, 0.0, 0.0, 0.0, 0.0, 1.7161973612499795E9, 0.0, 2024-05-20 12:29:21.249
95.0, -2168.47684007607, -187500.02235174447, -187500.02235174447, -187500.02235174447, -187500.02235174447, -187500.02235174447, -187500.02235174447, -187500.02235174447, 0.624, 0.156, 0.76, 192.0, 0.0, 0.0, 0.0, 0.0, 0.0, 0.0, 0.0, 0.0, 0.0, 1.7161973612540128E9, 0.0, 2024-05-20 12:29:21.254
96.0, -2146.259206087495, -187500.02235174447, -187500.02235174447, -187500.02235174447, -187500.02235174447, -187500.02235174447, -187500.02235174447, -187500.02235174447, 0.624, 0.156, 0.76, 192.0, 0.0, 0.0, 0.0, 0.0, 0.0, 0.0, 0.0, 0.0, 0.0, 1.7161973612580264E9, 0.0, 2024-05-20 12:29:21.258
97.0, -2133.6975257036124, -187500.02235174447, -187500.02235174447, -187500.02235174447, -187500.02235174447, -187500.02235174447, -187500.02235174447, -187500.02235174447, 0.624, 0.156, 0.76, 192.0, 0.0, 0.0, 0.0, 0.0, 0.0, 0.0, 0.0, 0.0, 0.0, 1.716197361264026E9, 0.0, 2024-05-20 12:29:21.264
98.0, -2144.2699008309723, -187500.02235174447, -187500.02235174447, -187500.02235174447, -187500.02235174447, -187500.02235174447, -187500.02235174447, -187500.02235174447, 0.624, 0.156, 0.76, 192.0, 0.0, 0.0, 0.0, 0.0, 0.0, 0.0, 0.0, 0.0, 0.0, 1.7161973612670708E9, 0.0, 2024-05-20 12:29:21.267
99.0, -2162.598331284324, -187500.02235174447, -187500.02235174447, -187500.02235174447, -187500.02235174447, -187500.02235174447, -187500.02235174447, -187500.02235174447, 0.624, 0.156, 0.76, 192.0, 0.0, 0.0, 0.0, 0.0, 0.0, 0.0, 0.0, 0.0, 0.0, 1.7161973612700768E9, 0.0, 2024-05-20 12:29:21.270
100.0, -2159.8043632274107, -187500.02235174447, -187500.02235174447, -187500.02235174447, -187500.02235174447, -187500.02235174447, -187500.02235174447, -187500.02235174447, 0.624, 0.156, 0.76, 192.0, 0.0, 0.0, 0.0, 0.0, 0.0, 0.0, 0.0, 0.0, 0.0, 1.7161973612740884E9, 0.0, 2024-05-20 12:29:21.274
101.0, -2152.6965084906233, -187500.02235174447, -187500.02235174447, -187500.02235174447, -187500.02235174447, -187500.02235174447, -187500.02235174447, -187500.02235174447, 0.624, 0.156, 0.76, 192.0, 0.0, 0.0, 0.0, 0.0, 0.0, 0.0, 0.0, 0.0, 0.0, 1.7161973612780907E9, 0.0, 2024-05-20 12:29:21.278
102.0, -2143.2417205860284, -187500.02235174447, -187500.02235174447, -187500.02235174447, -187500.02235174447, -187500.02235174447, -187500.02235174447, -187500.02235174447, 0.624, 0.158, 0.762, 192.0, 19.0, 128.0, 4.0, 240.0, 23.0, 208.0, 0.0, 0.0, 0.0, 1.7161973612821076E9, 0.0, 2024-05-20 12:29:21.282
103.0, -2123.415723254171, -187500.02235174447, -187500.02235174447, -187500.02235174447, -187500.02235174447, -187500.02235174447, -187500.02235174447, -187500.02235174447, 0.624, 0.158, 0.762, 192.0, 0.0, 0.0, 0.0, 0.0, 0.0, 0.0, 0.0, 0.0, 0.0, 1.7161973612861242E9, 0.0, 2024-05-20 12:29:21.286
104.0, -2126.8802436447436, -187500.02235174447, -187500.02235174447, -187500.02235174447, -187500.02235174447, -187500.02235174447, -187500.02235174447, -187500.02235174447, 0.624, 0.158, 0.762, 192.0, 0.0, 0.0, 0.0, 0.0, 0.0, 0.0, 0.0, 0.0, 0.0, 1.7161973612901595E9, 0.0, 2024-05-20 12:29:21.290
105.0, -2144.739287464534, -187500.02235174447, -187500.02235174447, -187500.02235174447, -187500.02235174447, -187500.02235174447, -187500.02235174447, -187500.02235174447, 0.624, 0.158, 0.762, 192.0, 0.0, 0.0, 0.0, 0.0, 0.0, 0.0, 0.0, 0.0, 0.0, 1.7161973612941313E9, 0.0, 2024-05-20 12:29:21.294
106.0, -2131.0823716023415, -187500.02235174447, -187500.02235174447, -187500.02235174447, -187500.02235174447, -187500.02235174447, -187500.02235174447, -187500.02235174447, 0.624, 0.158, 0.762, 192.0, 0.0, 0.0, 0.0, 0.0, 0.0, 0.0, 0.0, 0.0, 0.0, 1.716197361297154E9, 0.0, 2024-05-20 12:29:21.297
107.0, -2123.3486680208052, -187500.02235174447, -187500.02235174447, -187500.02235174447, -187500.02235174447, -187500.02235174447, -187500.02235174447, -187500.02235174447, 0.624, 0.158, 0.762, 192.0, 0.0, 0.0, 0.0, 0.0, 0.0, 0.0, 0.0, 0.0, 0.0, 1.7161973613011787E9, 0.0, 2024-05-20 12:29:21.301
108.0, -2106.3613422347717, -187500.02235174447, -187500.02235174447, -187500.02235174447, -187500.02235174447, -187500.02235174447, -187500.02235174447, -187500.02235174447, 0.624, 0.158, 0.762, 192.0, 0.0, 0.0, 0.0, 0.0, 0.0, 0.0, 0.0, 0.0, 0.0, 1.7161973613061724E9, 0.0, 2024-05-20 12:29:21.306
109.0, -2104.7743683784447, -187500.02235174447, -187500.02235174447, -187500.02235174447, -187500.02235174447, -187500.02235174447, -187500.02235174447, -187500.02235174447, 0.624, 0.158, 0.762, 192.0, 0.0, 0.0, 0.0, 0.0, 0.0, 0.0, 0.0, 0.0, 0.0, 1.7161973613112462E9, 0.0, 2024-05-20 12:29:21.311
110.0, -2132.8034559253997, -187500.02235174447, -187500.02235174447, -187500.02235174447, -187500.02235174447, -187500.02235174447, -187500.02235174447, -187500.02235174447, 0.624, 0.158, 0.762, 192.0, 0.0, 0.0, 0.0, 0.0, 0.0, 0.0, 0.0, 0.0, 0.0, 1.7161973613142276E9, 0.0, 2024-05-20 12:29:21.314
111.0, -2147.0415171434306, -187500.02235174447, -187500.02235174447, -187500.02235174447, -187500.02235174447, -187500.02235174447, -187500.02235174447, -187500.02235174447, 0.624, 0.158, 0.762, 192.0, 0.0, 0.0, 0.0, 0.0, 0.0, 0.0, 0.0, 0.0, 0.0, 1.7161973613182561E9, 0.0, 2024-05-20 12:29:21.318
112.0, -2129.2271768125506, -187500.02235174447, -187500.02235174447, -187500.02235174447, -187500.02235174447, -187500.02235174447, -187500.02235174447, -187500.02235174447, 0.624, 0.162, 0.77, 192.0, 19.0, 128.0, 5.0, 16.0, 24.0, 16.0, 0.0, 0.0, 0.0, 1.716197361322251E9, 0.0, 2024-05-20 12:29:21.322
113.0, -2138.7490199505114, -187500.02235174447, -187500.02235174447, -187500.02235174447, -187500.02235174447, -187500.02235174447, -187500.02235174447, -187500.02235174447, 0.624, 0.162, 0.77, 192.0, 0.0, 0.0, 0.0, 0.0, 0.0, 0.0, 0.0, 0.0, 0.0, 1.716197361325322E9, 0.0, 2024-05-20 12:29:21.325
114.0, -2123.2369092985286, -187500.02235174447, -187500.02235174447, -187500.02235174447, -187500.02235174447, -187500.02235174447, -187500.02235174447, -187500.02235174447, 0.624, 0.162, 0.77, 192.0, 0.0, 0.0, 0.0, 0.0, 0.0, 0.0, 0.0, 0.0, 0.0, 1.7161973613312938E9, 0.0, 2024-05-20 12:29:21.331
115.0, -2090.4692519270484, -187500.02235174447, -187500.02235174447, -187500.02235174447, -187500.02235174447, -187500.02235174447, -187500.02235174447, -187500.02235174447, 0.624, 0.162, 0.77, 192.0, 0.0, 0.0, 0.0, 0.0, 0.0, 0.0, 0.0, 0.0, 0.0, 1.7161973613343077E9, 0.0, 2024-05-20 12:29:21.334
116.0, -2046.2798531389062, -187500.02235174447, -187500.02235174447, -187500.02235174447, -187500.02235174447, -187500.02235174447, -187500.02235174447, -187500.02235174447, 0.624, 0.162, 0.77, 192.0, 0.0, 0.0, 0.0, 0.0, 0.0, 0.0, 0.0, 0.0, 0.0, 1.7161973613393433E9, 0.0, 2024-05-20 12:29:21.339
117.0, -2112.865699871266, -187500.02235174447, -187500.02235174447, -187500.02235174447, -187500.02235174447, -187500.02235174447, -187500.02235174447, -187500.02235174447, 0.624, 0.162, 0.77, 192.0, 0.0, 0.0, 0.0, 0.0, 0.0, 0.0, 0.0, 0.0, 0.0, 1.7161973613433232E9, 0.0, 2024-05-20 12:29:21.343
118.0, -2158.932645193654, -187500.02235174447, -187500.02235174447, -187500.02235174447, -187500.02235174447, -187500.02235174447, -187500.02235174447, -187500.02235174447, 0.624, 0.162, 0.77, 192.0, 0.0, 0.0, 0.0, 0.0, 0.0, 0.0, 0.0, 0.0, 0.0, 1.7161973613473644E9, 0.0, 2024-05-20 12:29:21.347
119.0, -2145.409839798193, -187500.02235174447, -187500.02235174447, -187500.02235174447, -187500.02235174447, -187500.02235174447, -187500.02235174447, -187500.02235174447, 0.624, 0.162, 0.77, 192.0, 0.0, 0.0, 0.0, 0.0, 0.0, 0.0, 0.0, 0.0, 0.0, 1.7161973613503864E9, 0.0, 2024-05-20 12:29:21.350
120.0, -2126.679077944646, -187500.02235174447, -187500.02235174447, -187500.02235174447, -187500.02235174447, -187500.02235174447, -187500.02235174447, -187500.02235174447, 0.624, 0.162, 0.77, 192.0, 0.0, 0.0, 0.0, 0.0, 0.0, 0.0, 0.0, 0.0, 0.0, 1.7161973613533764E9, 0.0, 2024-05-20 12:29:21.353
121.0, -2120.3311825193387, -187500.02235174447, -187500.02235174447, -187500.02235174447, -187500.02235174447, -187500.02235174447, -187500.02235174447, -187500.02235174447, 0.624, 0.162, 0.77, 192.0, 0.0, 0.0, 0.0, 0.0, 0.0, 0.0, 0.0, 0.0, 0.0, 1.7161973613573852E9, 0.0, 2024-05-20 12:29:21.357
122.0, -2120.7558656639894, -187500.02235174447, -187500.02235174447, -187500.02235174447, -187500.02235174447, -187500.02235174447, -187500.02235174447, -187500.02235174447, 0.626, 0.164, 0.772, 192.0, 19.0, 144.0, 5.0, 32.0, 24.0, 32.0, 0.0, 0.0, 0.0, 1.7161973613613737E9, 0.0, 2024-05-20 12:29:21.361
123.0, -2082.869658812244, -187500.02235174447, -187500.02235174447, -187500.02235174447, -187500.02235174447, -187500.02235174447, -187500.02235174447, -187500.02235174447, 0.626, 0.164, 0.772, 192.0, 0.0, 0.0, 0.0, 0.0, 0.0, 0.0, 0.0, 0.0, 0.0, 1.7161973613663976E9, 0.0, 2024-05-20 12:29:21.366
124.0, -2069.0115772499535, -187500.02235174447, -187500.02235174447, -187500.02235174447, -187500.02235174447, -187500.02235174447, -187500.02235174447, -187500.02235174447, 0.626, 0.164, 0.772, 192.0, 0.0, 0.0, 0.0, 0.0, 0.0, 0.0, 0.0, 0.0, 0.0, 1.716197361370438E9, 0.0, 2024-05-20 12:29:21.370
125.0, -2094.4255106956375, -187500.02235174447, -187500.02235174447, -187500.02235174447, -187500.02235174447, -187500.02235174447, -187500.02235174447, -187500.02235174447, 0.626, 0.164, 0.772, 192.0, 0.0, 0.0, 0.0, 0.0, 0.0, 0.0, 0.0, 0.0, 0.0, 1.7161973613734465E9, 0.0, 2024-05-20 12:29:21.373
126.0, -2089.7986995933893, -187500.02235174447, -187500.02235174447, -187500.02235174447, -187500.02235174447, -187500.02235174447, -187500.02235174447, -187500.02235174447, 0.626, 0.164, 0.772, 192.0, 0.0, 0.0, 0.0, 0.0, 0.0, 0.0, 0.0, 0.0, 0.0, 1.7161973613774405E9, 0.0, 2024-05-20 12:29:21.377
127.0, -2103.2320980110285, -187500.02235174447, -187500.02235174447, -187500.02235174447, -187500.02235174447, -187500.02235174447, -187500.02235174447, -187500.02235174447, 0.626, 0.164, 0.772, 192.0, 0.0, 0.0, 0.0, 0.0, 0.0, 0.0, 0.0, 0.0, 0.0, 1.7161973613814712E9, 0.0, 2024-05-20 12:29:21.381
128.0, -2108.127130046741, -187500.02235174447, -187500.02235174447, -187500.02235174447, -187500.02235174447, -187500.02235174447, -187500.02235174447, -187500.02235174447, 0.626, 0.164, 0.772, 192.0, 0.0, 0.0, 0.0, 0.0, 0.0, 0.0, 0.0, 0.0, 0.0, 1.7161973613855677E9, 0.0, 2024-05-20 12:29:21.385
129.0, -2086.7588623474676, -187500.02235174447, -187500.02235174447, -187500.02235174447, -187500.02235174447, -187500.02235174447, -187500.02235174447, -187500.02235174447, 0.626, 0.164, 0.772, 192.0, 0.0, 0.0, 0.0, 0.0, 0.0, 0.0, 0.0, 0.0, 0.0, 1.7161973613895526E9, 0.0, 2024-05-20 12:29:21.389
130.0, -2084.5683913908474, -187500.02235174447, -187500.02235174447, -187500.02235174447, -187500.02235174447, -187500.02235174447, -187500.02235174447, -187500.02235174447, 0.626, 0.164, 0.772, 192.0, 0.0, 0.0, 0.0, 0.0, 0.0, 0.0, 0.0, 0.0, 0.0, 1.7161973613935633E9, 0.0, 2024-05-20 12:29:21.393
131.0, -2074.6889203416017, -187500.02235174447, -187500.02235174447, -187500.02235174447, -187500.02235174447, -187500.02235174447, -187500.02235174447, -187500.02235174447, 0.624, 0.158, 0.766, 192.0, 19.0, 128.0, 4.0, 240.0, 23.0, 240.0, 0.0, 0.0, 0.0, 1.7161973613985894E9, 0.0, 2024-05-20 12:29:21.398
132.0, -2087.407062936671, -187500.02235174447, -187500.02235174447, -187500.02235174447, -187500.02235174447, -187500.02235174447, -187500.02235174447, -187500.02235174447, 0.624, 0.158, 0.766, 192.0, 0.0, 0.0, 0.0, 0.0, 0.0, 0.0, 0.0, 0.0, 0.0, 1.7161973614035687E9, 0.0, 2024-05-20 12:29:21.403
133.0, -2085.417757680149, -187500.02235174447, -187500.02235174447, -187500.02235174447, -187500.02235174447, -187500.02235174447, -187500.02235174447, -187500.02235174447, 0.624, 0.158, 0.766, 192.0, 0.0, 0.0, 0.0, 0.0, 0.0, 0.0, 0.0, 0.0, 0.0, 1.716197361407622E9, 0.0, 2024-05-20 12:29:21.407
134.0, -2079.4721936550372, -187500.02235174447, -187500.02235174447, -187500.02235174447, -187500.02235174447, -187500.02235174447, -187500.02235174447, -187500.02235174447, 0.624, 0.158, 0.766, 192.0, 0.0, 0.0, 0.0, 0.0, 0.0, 0.0, 0.0, 0.0, 0.0, 1.716197361410576E9, 0.0, 2024-05-20 12:29:21.410
135.0, -2074.957141275065, -187500.02235174447, -187500.02235174447, -187500.02235174447, -187500.02235174447, -187500.02235174447, -187500.02235174447, -187500.02235174447, 0.624, 0.158, 0.766, 192.0, 0.0, 0.0, 0.0, 0.0, 0.0, 0.0, 0.0, 0.0, 0.0, 1.7161973614166117E9, 0.0, 2024-05-20 12:29:21.416
136.0, -2081.193277978096, -187500.02235174447, -187500.02235174447, -187500.02235174447, -187500.02235174447, -187500.02235174447, -187500.02235174447, -187500.02235174447, 0.624, 0.158, 0.766, 192.0, 0.0, 0.0, 0.0, 0.0, 0.0, 0.0, 0.0, 0.0, 0.0, 1.7161973614196208E9, 0.0, 2024-05-20 12:29:21.419
137.0, -2087.1164902587525, -187500.02235174447, -187500.02235174447, -187500.02235174447, -187500.02235174447, -187500.02235174447, -187500.02235174447, -187500.02235174447, 0.624, 0.158, 0.766, 192.0, 0.0, 0.0, 0.0, 0.0, 0.0, 0.0, 0.0, 0.0, 0.0, 1.7161973614226477E9, 0.0, 2024-05-20 12:29:21.422
138.0, -2098.359417719772, -187500.02235174447, -187500.02235174447, -187500.02235174447, -187500.02235174447, -187500.02235174447, -187500.02235174447, -187500.02235174447, 0.624, 0.158, 0.766, 192.0, 0.0, 0.0, 0.0, 0.0, 0.0, 0.0, 0.0, 0.0, 0.0, 1.716197361426664E9, 0.0, 2024-05-20 12:29:21.426
139.0, -2071.6937865845903, -187500.02235174447, -187500.02235174447, -187500.02235174447, -187500.02235174447, -187500.02235174447, -187500.02235174447, -187500.02235174447, 0.624, 0.158, 0.766, 192.0, 0.0, 0.0, 0.0, 0.0, 0.0, 0.0, 0.0, 0.0, 0.0, 1.7161973614296591E9, 0.0, 2024-05-20 12:29:21.429
