%OpenBCI Raw EXG Data
%Number of channels = 8
%Sample Rate = 250 Hz
%Board = OpenBCI_GUI$BoardCytonSerial
Sample Index, EXG Channel 0, EXG Channel 1, EXG Channel 2, EXG Channel 3, EXG Channel 4, EXG Channel 5, EXG Channel 6, EXG Channel 7, Accel Channel 0, Accel Channel 1, Accel Channel 2, Other, Other, Other, Other, Other, Other, Other, Analog Channel 0, Analog Channel 1, Analog Channel 2, Timestamp, Other, Timestamp (Formatted)
119.0, -2236.15792228674, -187500.02235174447, -187500.02235174447, -187500.02235174447, -187500.02235174447, -187500.02235174447, -187500.02235174447, -187500.02235174447, 0.0, 0.0, 0.0, 192.0, 0.0, 0.0, 0.0, 0.0, 0.0, 0.0, 0.0, 0.0, 0.0, 1.7161974126084688E9, 0.0, 2024-05-20 12:30:12.608
120.0, -2229.63121290579, -187500.02235174447, -187500.02235174447, -187500.02235174447, -187500.02235174447, -187500.02235174447, -187500.02235174447, -187500.02235174447, 0.0, 0.0, 0.0, 192.0, 0.0, 0.0, 0.0, 0.0, 0.0, 0.0, 0.0, 0.0, 0.0, 1.7161974126085095E9, 0.0, 2024-05-20 12:30:12.608
121.0, -2206.564212627913, -187500.02235174447, -187500.02235174447, -187500.02235174447, -187500.02235174447, -187500.02235174447, -187500.02235174447, -187500.02235174447, 0.0, 0.0, 0.0, 192.0, 0.0, 0.0, 0.0, 0.0, 0.0, 0.0, 0.0, 0.0, 0.0, 1.7161974126085362E9, 0.0, 2024-05-20 12:30:12.608
0.0, -2809.703685009919, -187500.02235174447, -187500.02235174447, -160481.63598556948, -187500.02235174447, -187500.02235174447, -187500.02235174447, -187500.02235174447, 0.244, 0.05, 0.434, 192.0, 7.0, 160.0, 1.0, 144.0, 13.0, 144.0, 0.0, 0.0, 0.0, 1.7161974127147E9, 0.0, 2024-05-20 12:30:12.714
1.0, -2821.3936473600447, -187500.02235174447, -187500.02235174447, -160492.25306418576, -187500.02235174447, -187500.02235174447, -187500.02235174447, -187500.02235174447, 0.244, 0.05, 0.434, 192.0, 0.0, 0.0, 0.0, 0.0, 0.0, 0.0, 0.0, 0.0, 0.0, 1.7161974127186422E9, 0.0, 2024-05-20 12:30:12.718
2.0, -2830.13317944207, -187500.02235174447, -187500.02235174447, -160518.8292883431, -187500.02235174447, -187500.02235174447, -187500.02235174447, -187500.02235174447, 0.244, 0.05, 0.434, 192.0, 0.0, 0.0, 0.0, 0.0, 0.0, 0.0, 0.0, 0.0, 0.0, 1.7161974127216623E9, 0.0, 2024-05-20 12:30:12.721
3.0, -2831.2060631759246, -187500.02235174447, -187500.02235174447, -160508.56983763812, -187500.02235174447, -187500.02235174447, -187500.02235174447, -187500.02235174447, 0.244, 0.05, 0.434, 192.0, 0.0, 0.0, 0.0, 0.0, 0.0, 0.0, 0.0, 0.0, 0.0, 1.716197412726679E9, 0.0, 2024-05-20 12:30:12.726
4.0, -2818.9349554699606, -187500.02235174447, -187500.02235174447, -160632.62201936508, -187500.02235174447, -187500.02235174447, -187500.02235174447, -187500.02235174447, 0.244, 0.05, 0.434, 192.0, 0.0, 0.0, 0.0, 0.0, 0.0, 0.0, 0.0, 0.0, 0.0, 1.7161974127296996E9, 0.0, 2024-05-20 12:30:12.729
5.0, -2821.5277578267765, -187500.02235174447, -187500.02235174447, -160656.00194406533, -187500.02235174447, -187500.02235174447, -187500.02235174447, -187500.02235174447, 0.244, 0.05, 0.434, 192.0, 0.0, 0.0, 0.0, 0.0, 0.0, 0.0, 0.0, 0.0, 0.0, 1.7161974127327116E9, 0.0, 2024-05-20 12:30:12.732
6.0, -2825.7298857843743, -187500.02235174447, -187500.02235174447, -160618.76393780278, -187500.02235174447, -187500.02235174447, -187500.02235174447, -187500.02235174447, 0.244, 0.05, 0.434, 192.0, 0.0, 0.0, 0.0, 0.0, 0.0, 0.0, 0.0, 0.0, 0.0, 1.7161974127377293E9, 0.0, 2024-05-20 12:30:12.737
7.0, -2838.872711524095, -187500.02235174447, -187500.02235174447, -160481.72539254732, -187500.02235174447, -187500.02235174447, -187500.02235174447, -187500.02235174447, 0.364, 0.078, 0.65, 192.0, 11.0, 96.0, 2.0, 112.0, 20.0, 80.0, 0.0, 0.0, 0.0, 1.7161974127429295E9, 0.0, 2024-05-20 12:30:12.742
8.0, -2822.600641560631, -187500.02235174447, -187500.02235174447, -160525.1995355129, -187500.02235174447, -187500.02235174447, -187500.02235174447, -187500.02235174447, 0.364, 0.078, 0.65, 192.0, 0.0, 0.0, 0.0, 0.0, 0.0, 0.0, 0.0, 0.0, 0.0, 1.7161974127467723E9, 0.0, 2024-05-20 12:30:12.746
9.0, -2814.9563449569164, -187500.02235174447, -187500.02235174447, -160723.928895465, -187500.02235174447, -187500.02235174447, -187500.02235174447, -187500.02235174447, 0.364, 0.078, 0.65, 192.0, 0.0, 0.0, 0.0, 0.0, 0.0, 0.0, 0.0, 0.0, 0.0, 1.7161974127507744E9, 0.0, 2024-05-20 12:30:12.750
10.0, -2818.063237436204, -187500.02235174447, -187500.02235174447, -160734.45656710345, -187500.02235174447, -187500.02235174447, -187500.02235174447, -187500.02235174447, 0.364, 0.078, 0.65, 192.0, 0.0, 0.0, 0.0, 0.0, 0.0, 0.0, 0.0, 0.0, 0.0, 1.7161974127537887E9, 0.0, 2024-05-20 12:30:12.753
11.0, -2825.0369817062597, -187500.02235174447, -187500.02235174447, -160695.36336605114, -187500.02235174447, -187500.02235174447, -187500.02235174447, -187500.02235174447, 0.364, 0.078, 0.65, 192.0, 0.0, 0.0, 0.0, 0.0, 0.0, 0.0, 0.0, 0.0, 0.0, 1.7161974127578173E9, 0.0, 2024-05-20 12:30:12.757
12.0, -2830.736676542363, -187500.02235174447, -187500.02235174447, -160696.12332536263, -187500.02235174447, -187500.02235174447, -187500.02235174447, -187500.02235174447, 0.364, 0.078, 0.65, 192.0, 0.0, 0.0, 0.0, 0.0, 0.0, 0.0, 0.0, 0.0, 0.0, 1.716197412762786E9, 0.0, 2024-05-20 12:30:12.762
13.0, -2829.730848041874, -187500.02235174447, -187500.02235174447, -160739.86568926164, -187500.02235174447, -187500.02235174447, -187500.02235174447, -187500.02235174447, 0.364, 0.078, 0.65, 192.0, 0.0, 0.0, 0.0, 0.0, 0.0, 0.0, 0.0, 0.0, 0.0, 1.7161974127658165E9, 0.0, 2024-05-20 12:30:12.765
14.0, -2825.1263886840807, -187500.02235174447, -187500.02235174447, -160796.72852715594, -187500.02235174447, -187500.02235174447, -187500.02235174447, -187500.02235174447, 0.364, 0.078, 0.65, 192.0, 0.0, 0.0, 0.0, 0.0, 0.0, 0.0, 0.0, 0.0, 0.0, 1.71619741276983E9, 0.0, 2024-05-20 12:30:12.769
15.0, -2819.694914781441, -187500.02235174447, -187500.02235174447, -160786.62553866216, -187500.02235174447, -187500.02235174447, -187500.02235174447, -187500.02235174447, 0.364, 0.078, 0.65, 192.0, 0.0, 0.0, 0.0, 0.0, 0.0, 0.0, 0.0, 0.0, 0.0, 1.7161974127738729E9, 0.0, 2024-05-20 12:30:12.773
16.0, -2827.0709904516925, -187500.02235174447, -187500.02235174447, -160742.70436080746, -187500.02235174447, -187500.02235174447, -187500.02235174447, -187500.02235174447, 0.424, 0.088, 0.764, 192.0, 13.0, 64.0, 2.0, 192.0, 23.0, 224.0, 0.0, 0.0, 0.0, 1.7161974127779107E9, 0.0, 2024-05-20 12:30:12.777
17.0, -2829.0155922193044, -187500.02235174447, -187500.02235174447, -160672.25166228434, -187500.02235174447, -187500.02235174447, -187500.02235174447, -187500.02235174447, 0.424, 0.088, 0.764, 192.0, 0.0, 0.0, 0.0, 0.0, 0.0, 0.0, 0.0, 0.0, 0.0, 1.7161974127808728E9, 0.0, 2024-05-20 12:30:12.780
18.0, -2823.0700281941927, -187500.02235174447, -187500.02235174447, -160812.37474827465, -187500.02235174447, -187500.02235174447, -187500.02235174447, -187500.02235174447, 0.424, 0.088, 0.764, 192.0, 0.0, 0.0, 0.0, 0.0, 0.0, 0.0, 0.0, 0.0, 0.0, 1.7161974127848704E9, 0.0, 2024-05-20 12:30:12.784
19.0, -2819.8737287370836, -187500.02235174447, -187500.02235174447, -160875.60783333873, -187500.02235174447, -187500.02235174447, -187500.02235174447, -187500.02235174447, 0.424, 0.088, 0.764, 192.0, 0.0, 0.0, 0.0, 0.0, 0.0, 0.0, 0.0, 0.0, 0.0, 1.716197412788907E9, 0.0, 2024-05-20 12:30:12.788
20.0, -2817.5938508026425, -187500.02235174447, -187500.02235174447, -160891.32110969082, -187500.02235174447, -187500.02235174447, -187500.02235174447, -187500.02235174447, 0.424, 0.088, 0.764, 192.0, 0.0, 0.0, 0.0, 0.0, 0.0, 0.0, 0.0, 0.0, 0.0, 1.7161974127929454E9, 0.0, 2024-05-20 12:30:12.792
21.0, -2825.305202639723, -187500.02235174447, -187500.02235174447, -160877.15010370614, -187500.02235174447, -187500.02235174447, -187500.02235174447, -187500.02235174447, 0.424, 0.088, 0.764, 192.0, 0.0, 0.0, 0.0, 0.0, 0.0, 0.0, 0.0, 0.0, 0.0, 1.7161974127969592E9, 0.0, 2024-05-20 12:30:12.796
22.0, -2826.221624162391, -187500.02235174447, -187500.02235174447, -160855.6253737957, -187500.02235174447, -187500.02235174447, -187500.02235174447, -187500.02235174447, 0.424, 0.088, 0.764, 192.0, 0.0, 0.0, 0.0, 0.0, 0.0, 0.0, 0.0, 0.0, 0.0, 1.7161974128029857E9, 0.0, 2024-05-20 12:30:12.802
23.0, -2828.3226881411897, -187500.02235174447, -187500.02235174447, -160915.6174559137, -187500.02235174447, -187500.02235174447, -187500.02235174447, -187500.02235174447, 0.424, 0.088, 0.764, 192.0, 0.0, 0.0, 0.0, 0.0, 0.0, 0.0, 0.0, 0.0, 0.0, 1.7161974128059497E9, 0.0, 2024-05-20 12:30:12.805
24.0, -2825.506368339821, -187500.02235174447, -187500.02235174447, -160935.26463928993, -187500.02235174447, -187500.02235174447, -187500.02235174447, -187500.02235174447, 0.424, 0.088, 0.764, 192.0, 0.0, 0.0, 0.0, 0.0, 0.0, 0.0, 0.0, 0.0, 0.0, 1.7161974128100104E9, 0.0, 2024-05-20 12:30:12.810
25.0, -2821.706571782419, -187500.02235174447, -187500.02235174447, -160906.36383370924, -187500.02235174447, -187500.02235174447, -187500.02235174447, -187500.02235174447, 0.424, 0.088, 0.764, 192.0, 0.0, 0.0, 0.0, 0.0, 0.0, 0.0, 0.0, 0.0, 0.0, 1.716197412814289E9, 0.0, 2024-05-20 12:30:12.814
26.0, -2825.215795661902, -187500.02235174447, -187500.02235174447, -160883.18507470906, -187500.02235174447, -187500.02235174447, -187500.02235174447, -187500.02235174447, 0.452, 0.094, 0.8160000000000001, 192.0, 14.0, 32.0, 2.0, 240.0, 25.0, 128.0, 0.0, 0.0, 0.0, 1.7161974128180847E9, 0.0, 2024-05-20 12:30:12.818
27.0, -2830.155531186525, -187500.02235174447, -187500.02235174447, -160920.91481934962, -187500.02235174447, -187500.02235174447, -187500.02235174447, -187500.02235174447, 0.452, 0.094, 0.8160000000000001, 192.0, 0.0, 0.0, 0.0, 0.0, 0.0, 0.0, 0.0, 0.0, 0.0, 1.7161974128230424E9, 0.0, 2024-05-20 12:30:12.823
28.0, -2831.5636910872095, -187500.02235174447, -187500.02235174447, -160973.32966009734, -187500.02235174447, -187500.02235174447, -187500.02235174447, -187500.02235174447, 0.452, 0.094, 0.8160000000000001, 192.0, 0.0, 0.0, 0.0, 0.0, 0.0, 0.0, 0.0, 0.0, 0.0, 1.71619741282605E9, 0.0, 2024-05-20 12:30:12.826
29.0, -2830.0437724642484, -187500.02235174447, -187500.02235174447, -160976.28009036544, -187500.02235174447, -187500.02235174447, -187500.02235174447, -187500.02235174447, 0.452, 0.094, 0.8160000000000001, 192.0, 0.0, 0.0, 0.0, 0.0, 0.0, 0.0, 0.0, 0.0, 0.0, 1.716197412831052E9, 0.0, 2024-05-20 12:30:12.831
30.0, -2827.6744875519857, -187500.02235174447, -187500.02235174447, -160858.55345231932, -187500.02235174447, -187500.02235174447, -187500.02235174447, -187500.02235174447, 0.452, 0.094, 0.8160000000000001, 192.0, 0.0, 0.0, 0.0, 0.0, 0.0, 0.0, 0.0, 0.0, 0.0, 1.7161974128351185E9, 0.0, 2024-05-20 12:30:12.835
31.0, -2827.875653252084, -187500.02235174447, -187500.02235174447, -160912.0188250564, -187500.02235174447, -187500.02235174447, -187500.02235174447, -187500.02235174447, 0.452, 0.094, 0.8160000000000001, 192.0, 0.0, 0.0, 0.0, 0.0, 0.0, 0.0, 0.0, 0.0, 0.0, 1.7161974128380933E9, 0.0, 2024-05-20 12:30:12.838
32.0, -2838.7609528018183, -187500.02235174447, -187500.02235174447, -160951.20143308656, -187500.02235174447, -187500.02235174447, -187500.02235174447, -187500.02235174447, 0.452, 0.094, 0.8160000000000001, 192.0, 0.0, 0.0, 0.0, 0.0, 0.0, 0.0, 0.0, 0.0, 0.0, 1.716197412842126E9, 0.0, 2024-05-20 12:30:12.842
33.0, -2840.839665036162, -187500.02235174447, -187500.02235174447, -160961.68440123613, -187500.02235174447, -187500.02235174447, -187500.02235174447, -187500.02235174447, 0.452, 0.094, 0.8160000000000001, 192.0, 0.0, 0.0, 0.0, 0.0, 0.0, 0.0, 0.0, 0.0, 0.0, 1.716197412845105E9, 0.0, 2024-05-20 12:30:12.845
34.0, -2829.3955718750444, -187500.02235174447, -187500.02235174447, -160932.6941886776, -187500.02235174447, -187500.02235174447, -187500.02235174447, -187500.02235174447, 0.452, 0.094, 0.8160000000000001, 192.0, 0.0, 0.0, 0.0, 0.0, 0.0, 0.0, 0.0, 0.0, 0.0, 1.7161974128491335E9, 0.0, 2024-05-20 12:30:12.849
35.0, -2816.9456502134385, -187500.02235174447, -187500.02235174447, -160927.55328745287, -187500.02235174447, -187500.02235174447, -187500.02235174447, -187500.02235174447, 0.452, 0.094, 0.8160000000000001, 192.0, 0.0, 0.0, 0.0, 0.0, 0.0, 0.0, 0.0, 0.0, 0.0, 1.716197412853186E9, 0.0, 2024-05-20 12:30:12.853
36.0, -2823.94174622795, -187500.02235174447, -187500.02235174447, -160952.1402063537, -187500.02235174447, -187500.02235174447, -187500.02235174447, -187500.02235174447, 0.468, 0.094, 0.85, 192.0, 14.0, 160.0, 2.0, 240.0, 26.0, 144.0, 0.0, 0.0, 0.0, 1.71619741285718E9, 0.0, 2024-05-20 12:30:12.857
37.0, -2838.8056562907286, -187500.02235174447, -187500.02235174447, -160876.30073741684, -187500.02235174447, -187500.02235174447, -187500.02235174447, -187500.02235174447, 0.468, 0.094, 0.85, 192.0, 0.0, 0.0, 0.0, 0.0, 0.0, 0.0, 0.0, 0.0, 0.0, 1.7161974128621995E9, 0.0, 2024-05-20 12:30:12.862
38.0, -2832.413057376511, -187500.02235174447, -187500.02235174447, -160894.74092659247, -187500.02235174447, -187500.02235174447, -187500.02235174447, -187500.02235174447, 0.468, 0.094, 0.85, 192.0, 0.0, 0.0, 0.0, 0.0, 0.0, 0.0, 0.0, 0.0, 0.0, 1.7161974128652124E9, 0.0, 2024-05-20 12:30:12.865
39.0, -2830.3343451421674, -187500.02235174447, -187500.02235174447, -160984.1032009248, -187500.02235174447, -187500.02235174447, -187500.02235174447, -187500.02235174447, 0.468, 0.094, 0.85, 192.0, 0.0, 0.0, 0.0, 0.0, 0.0, 0.0, 0.0, 0.0, 0.0, 1.7161974128692288E9, 0.0, 2024-05-20 12:30:12.869
40.0, -2818.711438025408, -187500.02235174447, -187500.02235174447, -160959.76215121296, -187500.02235174447, -187500.02235174447, -187500.02235174447, -187500.02235174447, 0.468, 0.094, 0.85, 192.0, 0.0, 0.0, 0.0, 0.0, 0.0, 0.0, 0.0, 0.0, 0.0, 1.7161974128732295E9, 0.0, 2024-05-20 12:30:12.873
41.0, -2827.160397429514, -187500.02235174447, -187500.02235174447, -160859.44752209753, -187500.02235174447, -187500.02235174447, -187500.02235174447, -187500.02235174447, 0.468, 0.094, 0.85, 192.0, 0.0, 0.0, 0.0, 0.0, 0.0, 0.0, 0.0, 0.0, 0.0, 1.716197412877242E9, 0.0, 2024-05-20 12:30:12.877
42.0, -2828.3226881411897, -187500.02235174447, -187500.02235174447, -160839.9120974436, -187500.02235174447, -187500.02235174447, -187500.02235174447, -187500.02235174447, 0.468, 0.094, 0.85, 192.0, 0.0, 0.0, 0.0, 0.0, 0.0, 0.0, 0.0, 0.0, 0.0, 1.7161974128812456E9, 0.0, 2024-05-20 12:30:12.881
43.0, -2829.6637928085083, -187500.02235174447, -187500.02235174447, -160918.2773135039, -187500.02235174447, -187500.02235174447, -187500.02235174447, -187500.02235174447, 0.468, 0.094, 0.85, 192.0, 0.0, 0.0, 0.0, 0.0, 0.0, 0.0, 0.0, 0.0, 0.0, 1.7161974128852603E9, 0.0, 2024-05-20 12:30:12.885
44.0, -2822.220661904891, -187500.02235174447, -187500.02235174447, -160939.3326567808, -187500.02235174447, -187500.02235174447, -187500.02235174447, -187500.02235174447, 0.468, 0.094, 0.85, 192.0, 0.0, 0.0, 0.0, 0.0, 0.0, 0.0, 0.0, 0.0, 0.0, 1.7161974128902936E9, 0.0, 2024-05-20 12:30:12.890
45.0, -2818.0408856917484, -187500.02235174447, -187500.02235174447, -160912.30939773435, -187500.02235174447, -187500.02235174447, -187500.02235174447, -187500.02235174447, 0.468, 0.094, 0.85, 192.0, 0.0, 0.0, 0.0, 0.0, 0.0, 0.0, 0.0, 0.0, 0.0, 1.7161974128932858E9, 0.0, 2024-05-20 12:30:12.893
46.0, -2827.2945078962457, -187500.02235174447, -187500.02235174447, -160895.07620275932, -187500.02235174447, -187500.02235174447, -187500.02235174447, -187500.02235174447, 0.47200000000000003, 0.098, 0.864, 192.0, 14.0, 192.0, 3.0, 16.0, 27.0, 0.0, 0.0, 0.0, 0.0, 1.7161974128963065E9, 0.0, 2024-05-20 12:30:12.896
47.0, -2834.4917696108546, -187500.02235174447, -187500.02235174447, -160896.55141789335, -187500.02235174447, -187500.02235174447, -187500.02235174447, -187500.02235174447, 0.47200000000000003, 0.098, 0.864, 192.0, 0.0, 0.0, 0.0, 0.0, 0.0, 0.0, 0.0, 0.0, 0.0, 1.7161974129023666E9, 0.0, 2024-05-20 12:30:12.902
48.0, -2837.732772556874, -187500.02235174447, -187500.02235174447, -160909.11309827724, -187500.02235174447, -187500.02235174447, -187500.02235174447, -187500.02235174447, 0.47200000000000003, 0.098, 0.864, 192.0, 0.0, 0.0, 0.0, 0.0, 0.0, 0.0, 0.0, 0.0, 0.0, 1.7161974129054136E9, 0.0, 2024-05-20 12:30:12.905
49.0, -2829.6414410640527, -187500.02235174447, -187500.02235174447, -160890.58350212377, -187500.02235174447, -187500.02235174447, -187500.02235174447, -187500.02235174447, 0.47200000000000003, 0.098, 0.864, 192.0, 0.0, 0.0, 0.0, 0.0, 0.0, 0.0, 0.0, 0.0, 0.0, 1.7161974129114726E9, 0.0, 2024-05-20 12:30:12.911
50.0, -2822.019496204793, -187500.02235174447, -187500.02235174447, -160813.46998375296, -187500.02235174447, -187500.02235174447, -187500.02235174447, -187500.02235174447, 0.47200000000000003, 0.098, 0.864, 192.0, 0.0, 0.0, 0.0, 0.0, 0.0, 0.0, 0.0, 0.0, 0.0, 1.7161974129144003E9, 0.0, 2024-05-20 12:30:12.914
51.0, -2821.706571782419, -187500.02235174447, -187500.02235174447, -160876.7254205615, -187500.02235174447, -187500.02235174447, -187500.02235174447, -187500.02235174447, 0.47200000000000003, 0.098, 0.864, 192.0, 0.0, 0.0, 0.0, 0.0, 0.0, 0.0, 0.0, 0.0, 0.0, 1.7161974129174216E9, 0.0, 2024-05-20 12:30:12.917
52.0, -2836.70459231193, -187500.02235174447, -187500.02235174447, -160893.35511843624, -187500.02235174447, -187500.02235174447, -187500.02235174447, -187500.02235174447, 0.47200000000000003, 0.098, 0.864, 192.0, 0.0, 0.0, 0.0, 0.0, 0.0, 0.0, 0.0, 0.0, 0.0, 1.7161974129204872E9, 0.0, 2024-05-20 12:30:12.920
53.0, -2841.890197025561, -187500.02235174447, -187500.02235174447, -160849.6127545372, -187500.02235174447, -187500.02235174447, -187500.02235174447, -187500.02235174447, 0.47200000000000003, 0.098, 0.864, 192.0, 0.0, 0.0, 0.0, 0.0, 0.0, 0.0, 0.0, 0.0, 0.0, 1.716197412927496E9, 0.0, 2024-05-20 12:30:12.927
54.0, -2828.7473712858405, -187500.02235174447, -187500.02235174447, -160803.6575679371, -187500.02235174447, -187500.02235174447, -187500.02235174447, -187500.02235174447, 0.47200000000000003, 0.098, 0.864, 192.0, 0.0, 0.0, 0.0, 0.0, 0.0, 0.0, 0.0, 0.0, 0.0, 1.7161974129314935E9, 0.0, 2024-05-20 12:30:12.931
55.0, -2827.6744875519857, -187500.02235174447, -187500.02235174447, -160812.0171203634, -187500.02235174447, -187500.02235174447, -187500.02235174447, -187500.02235174447, 0.48, 0.10200000000000001, 0.866, 192.0, 15.0, 0.0, 3.0, 48.0, 27.0, 16.0, 0.0, 0.0, 0.0, 1.7161974129344976E9, 0.0, 2024-05-20 12:30:12.934
56.0, -2839.252691179835, -187500.02235174447, -187500.02235174447, -160699.85606668665, -187500.02235174447, -187500.02235174447, -187500.02235174447, -187500.02235174447, 0.48, 0.10200000000000001, 0.866, 192.0, 0.0, 0.0, 0.0, 0.0, 0.0, 0.0, 0.0, 0.0, 0.0, 1.716197412937507E9, 0.0, 2024-05-20 12:30:12.937
57.0, -2843.164246459514, -187500.02235174447, -187500.02235174447, -160756.62949760313, -187500.02235174447, -187500.02235174447, -187500.02235174447, -187500.02235174447, 0.48, 0.10200000000000001, 0.866, 192.0, 0.0, 0.0, 0.0, 0.0, 0.0, 0.0, 0.0, 0.0, 0.0, 1.7161974129414847E9, 0.0, 2024-05-20 12:30:12.941
58.0, -2838.984470246371, -187500.02235174447, -187500.02235174447, -160834.74884447444, -187500.02235174447, -187500.02235174447, -187500.02235174447, -187500.02235174447, 0.48, 0.10200000000000001, 0.866, 192.0, 0.0, 0.0, 0.0, 0.0, 0.0, 0.0, 0.0, 0.0, 0.0, 1.7161974129446468E9, 0.0, 2024-05-20 12:30:12.944
59.0, -2832.2342434208686, -187500.02235174447, -187500.02235174447, -160833.94418167404, -187500.02235174447, -187500.02235174447, -187500.02235174447, -187500.02235174447, 0.48, 0.10200000000000001, 0.866, 192.0, 0.0, 0.0, 0.0, 0.0, 0.0, 0.0, 0.0, 0.0, 0.0, 1.7161974129485369E9, 0.0, 2024-05-20 12:30:12.948
60.0, -2826.288679395757, -187500.02235174447, -187500.02235174447, -160824.17646934706, -187500.02235174447, -187500.02235174447, -187500.02235174447, -187500.02235174447, 0.48, 0.10200000000000001, 0.866, 192.0, 0.0, 0.0, 0.0, 0.0, 0.0, 0.0, 0.0, 0.0, 0.0, 1.7161974129525597E9, 0.0, 2024-05-20 12:30:12.952
61.0, -2841.152589458536, -187500.02235174447, -187500.02235174447, -160719.90558146307, -187500.02235174447, -187500.02235174447, -187500.02235174447, -187500.02235174447, 0.48, 0.10200000000000001, 0.866, 192.0, 0.0, 0.0, 0.0, 0.0, 0.0, 0.0, 0.0, 0.0, 0.0, 1.7161974129565768E9, 0.0, 2024-05-20 12:30:12.956
62.0, -2845.6005866051423, -187500.02235174447, -187500.02235174447, -160691.18358983798, -187500.02235174447, -187500.02235174447, -187500.02235174447, -187500.02235174447, 0.48, 0.10200000000000001, 0.866, 192.0, 0.0, 0.0, 0.0, 0.0, 0.0, 0.0, 0.0, 0.0, 0.0, 1.7161974129615288E9, 0.0, 2024-05-20 12:30:12.961
63.0, -2844.192426704458, -187500.02235174447, -187500.02235174447, -160724.8453169877, -187500.02235174447, -187500.02235174447, -187500.02235174447, -187500.02235174447, 0.48, 0.10200000000000001, 0.866, 192.0, 0.0, 0.0, 0.0, 0.0, 0.0, 0.0, 0.0, 0.0, 0.0, 1.7161974129655852E9, 0.0, 2024-05-20 12:30:12.965
64.0, -2832.725981798885, -187500.02235174447, -187500.02235174447, -160707.4780115459, -187500.02235174447, -187500.02235174447, -187500.02235174447, -187500.02235174447, 0.48, 0.10200000000000001, 0.866, 192.0, 0.0, 0.0, 0.0, 0.0, 0.0, 0.0, 0.0, 0.0, 0.0, 1.7161974129697547E9, 0.0, 2024-05-20 12:30:12.969
65.0, -2833.2400719213574, -187500.02235174447, -187500.02235174447, -160595.406364847, -187500.02235174447, -187500.02235174447, -187500.02235174447, -187500.02235174447, 0.47600000000000003, 0.106, 0.868, 192.0, 14.0, 224.0, 3.0, 80.0, 27.0, 32.0, 0.0, 0.0, 0.0, 1.7161974129736304E9, 0.0, 2024-05-20 12:30:12.973
66.0, -2838.6491940795418, -187500.02235174447, -187500.02235174447, -160458.74779924724, -187500.02235174447, -187500.02235174447, -187500.02235174447, -187500.02235174447, 0.47600000000000003, 0.106, 0.868, 192.0, 0.0, 0.0, 0.0, 0.0, 0.0, 0.0, 0.0, 0.0, 0.0, 1.7161974129776256E9, 0.0, 2024-05-20 12:30:12.977
67.0, -2845.3100139272233, -187500.02235174447, -187500.02235174447, -160535.70485540686, -187500.02235174447, -187500.02235174447, -187500.02235174447, -187500.02235174447, 0.47600000000000003, 0.106, 0.868, 192.0, 0.0, 0.0, 0.0, 0.0, 0.0, 0.0, 0.0, 0.0, 0.0, 1.716197412980656E9, 0.0, 2024-05-20 12:30:12.980
68.0, -2857.178790232991, -187500.02235174447, -187500.02235174447, -160563.62218423156, -187500.02235174447, -187500.02235174447, -187500.02235174447, -187500.02235174447, 0.47600000000000003, 0.106, 0.868, 192.0, 0.0, 0.0, 0.0, 0.0, 0.0, 0.0, 0.0, 0.0, 0.0, 1.716197412986678E9, 0.0, 2024-05-20 12:30:12.986
69.0, -2851.121467485603, -187500.02235174447, -187500.02235174447, -160580.11777163958, -187500.02235174447, -187500.02235174447, -187500.02235174447, -187500.02235174447, 0.47600000000000003, 0.106, 0.868, 192.0, 0.0, 0.0, 0.0, 0.0, 0.0, 0.0, 0.0, 0.0, 0.0, 1.71619741299069E9, 0.0, 2024-05-20 12:30:12.990
70.0, -2843.9465575154495, -187500.02235174447, -187500.02235174447, -160483.82645652612, -187500.02235174447, -187500.02235174447, -187500.02235174447, -187500.02235174447, 0.47600000000000003, 0.106, 0.868, 192.0, 0.0, 0.0, 0.0, 0.0, 0.0, 0.0, 0.0, 0.0, 0.0, 1.7161974129948046E9, 0.0, 2024-05-20 12:30:12.994
71.0, -2847.0087465058264, -187500.02235174447, -187500.02235174447, -160432.23863032326, -187500.02235174447, -187500.02235174447, -187500.02235174447, -187500.02235174447, 0.47600000000000003, 0.106, 0.868, 192.0, 0.0, 0.0, 0.0, 0.0, 0.0, 0.0, 0.0, 0.0, 0.0, 1.716197412998714E9, 0.0, 2024-05-20 12:30:12.998
72.0, -2857.9163978000165, -187500.02235174447, -187500.02235174447, -160312.32152132053, -187500.02235174447, -187500.02235174447, -187500.02235174447, -187500.02235174447, 0.47600000000000003, 0.106, 0.868, 192.0, 0.0, 0.0, 0.0, 0.0, 0.0, 0.0, 0.0, 0.0, 0.0, 1.7161974130037668E9, 0.0, 2024-05-20 12:30:13.003
73.0, -2851.8367233081726, -187500.02235174447, -187500.02235174447, -160415.07249058157, -187500.02235174447, -187500.02235174447, -187500.02235174447, -187500.02235174447, 0.47600000000000003, 0.106, 0.868, 192.0, 0.0, 0.0, 0.0, 0.0, 0.0, 0.0, 0.0, 0.0, 0.0, 1.716197413006755E9, 0.0, 2024-05-20 12:30:13.006
74.0, -2846.7181738279073, -187500.02235174447, -187500.02235174447, -160472.13649417597, -187500.02235174447, -187500.02235174447, -187500.02235174447, -187500.02235174447, 0.47600000000000003, 0.106, 0.868, 192.0, 0.0, 0.0, 0.0, 0.0, 0.0, 0.0, 0.0, 0.0, 0.0, 1.7161974130097651E9, 0.0, 2024-05-20 12:30:13.009
75.0, -2845.80175230524, -187500.02235174447, -187500.02235174447, -160413.19494404734, -187500.02235174447, -187500.02235174447, -187500.02235174447, -187500.02235174447, 0.482, 0.106, 0.872, 192.0, 15.0, 16.0, 3.0, 80.0, 27.0, 64.0, 0.0, 0.0, 0.0, 1.7161974130127764E9, 0.0, 2024-05-20 12:30:13.012
76.0, -2855.569464632209, -187500.02235174447, -187500.02235174447, -160293.50135248917, -187500.02235174447, -187500.02235174447, -187500.02235174447, -187500.02235174447, 0.482, 0.106, 0.872, 192.0, 0.0, 0.0, 0.0, 0.0, 0.0, 0.0, 0.0, 0.0, 0.0, 1.7161974130168035E9, 0.0, 2024-05-20 12:30:13.016
77.0, -2863.951368802949, -187500.02235174447, -187500.02235174447, -160189.1634093718, -187500.02235174447, -187500.02235174447, -187500.02235174447, -187500.02235174447, 0.482, 0.106, 0.872, 192.0, 0.0, 0.0, 0.0, 0.0, 0.0, 0.0, 0.0, 0.0, 0.0, 1.71619741302181E9, 0.0, 2024-05-20 12:30:13.021
78.0, -2868.600531649653, -187500.02235174447, -187500.02235174447, -160263.7288288747, -187500.02235174447, -187500.02235174447, -187500.02235174447, -187500.02235174447, 0.482, 0.106, 0.872, 192.0, 0.0, 0.0, 0.0, 0.0, 0.0, 0.0, 0.0, 0.0, 0.0, 1.716197413025859E9, 0.0, 2024-05-20 12:30:13.025
79.0, -2861.738546101874, -187500.02235174447, -187500.02235174447, -160251.30125895754, -187500.02235174447, -187500.02235174447, -187500.02235174447, -187500.02235174447, 0.482, 0.106, 0.872, 192.0, 0.0, 0.0, 0.0, 0.0, 0.0, 0.0, 0.0, 0.0, 0.0, 1.716197413028833E9, 0.0, 2024-05-20 12:30:13.028
80.0, -2855.345947187656, -187500.02235174447, -187500.02235174447, -160176.31115631, -187500.02235174447, -187500.02235174447, -187500.02235174447, -187500.02235174447, 0.482, 0.106, 0.872, 192.0, 0.0, 0.0, 0.0, 0.0, 0.0, 0.0, 0.0, 0.0, 0.0, 1.7161974130328531E9, 0.0, 2024-05-20 12:30:13.032
81.0, -2861.7832495907846, -187500.02235174447, -187500.02235174447, -160136.68151339074, -187500.02235174447, -187500.02235174447, -187500.02235174447, -187500.02235174447, 0.482, 0.106, 0.872, 192.0, 0.0, 0.0, 0.0, 0.0, 0.0, 0.0, 0.0, 0.0, 0.0, 1.7161974130368347E9, 0.0, 2024-05-20 12:30:13.036
82.0, -2867.0806130266924, -187500.02235174447, -187500.02235174447, -160090.99454772408, -187500.02235174447, -187500.02235174447, -187500.02235174447, -187500.02235174447, 0.482, 0.106, 0.872, 192.0, 0.0, 0.0, 0.0, 0.0, 0.0, 0.0, 0.0, 0.0, 0.0, 1.7161974130409064E9, 0.0, 2024-05-20 12:30:13.040
83.0, -2866.8123920932285, -187500.02235174447, -187500.02235174447, -160012.58462817487, -187500.02235174447, -187500.02235174447, -187500.02235174447, -187500.02235174447, 0.482, 0.106, 0.872, 192.0, 0.0, 0.0, 0.0, 0.0, 0.0, 0.0, 0.0, 0.0, 0.0, 1.7161974130448987E9, 0.0, 2024-05-20 12:30:13.044
84.0, -2862.7890780912735, -187500.02235174447, -187500.02235174447, -160005.49912518254, -187500.02235174447, -187500.02235174447, -187500.02235174447, -187500.02235174447, 0.482, 0.106, 0.872, 192.0, 0.0, 0.0, 0.0, 0.0, 0.0, 0.0, 0.0, 0.0, 0.0, 1.7161974130489247E9, 0.0, 2024-05-20 12:30:13.048
85.0, -2861.984415290882, -187500.02235174447, -187500.02235174447, -159988.33298544085, -187500.02235174447, -187500.02235174447, -187500.02235174447, -187500.02235174447, 0.482, 0.106, 0.866, 192.0, 15.0, 16.0, 3.0, 80.0, 27.0, 16.0, 0.0, 0.0, 0.0, 1.7161974130539172E9, 0.0, 2024-05-20 12:30:13.053
86.0, -2868.4664211829213, -187500.02235174447, -187500.02235174447, -159859.16225423364, -187500.02235174447, -187368.10235596925, -187500.02235174447, -187500.02235174447, 0.482, 0.106, 0.866, 192.0, 0.0, 0.0, 0.0, 0.0, 0.0, 0.0, 0.0, 0.0, 0.0, 1.7161974130579455E9, 0.0, 2024-05-20 12:30:13.057
87.0, -2875.954255575449, -187500.02235174447, -187500.02235174447, -159891.21465578256, -187500.02235174447, -187323.08594263624, -187500.02235174447, -187500.02235174447, 0.482, 0.106, 0.866, 192.0, 0.0, 0.0, 0.0, 0.0, 0.0, 0.0, 0.0, 0.0, 0.0, 1.7161974130609748E9, 0.0, 2024-05-20 12:30:13.060
88.0, -2882.793889378773, -187500.02235174447, -187500.02235174447, -159816.78334674638, -187500.02235174447, -187176.436147265, -187500.02235174447, -187500.02235174447, 0.482, 0.106, 0.866, 192.0, 0.0, 0.0, 0.0, 0.0, 0.0, 0.0, 0.0, 0.0, 0.0, 1.716197413065003E9, 0.0, 2024-05-20 12:30:13.065
89.0, -2869.896932828061, -187500.02235174447, -187500.02235174447, -159802.43352680607, -187500.02235174447, -187082.17884089696, -187500.02235174447, -187500.02235174447, 0.482, 0.106, 0.866, 192.0, 0.0, 0.0, 0.0, 0.0, 0.0, 0.0, 0.0, 0.0, 0.0, 1.7161974130709887E9, 0.0, 2024-05-20 12:30:13.070
90.0, -2866.320653715212, -187500.02235174447, -187500.02235174447, -159776.55020672682, -187500.02235174447, -186980.97014200332, -187500.02235174447, -187500.02235174447, 0.482, 0.106, 0.866, 192.0, 0.0, 0.0, 0.0, 0.0, 0.0, 0.0, 0.0, 0.0, 0.0, 1.7161974130740044E9, 0.0, 2024-05-20 12:30:13.074
91.0, -2874.9037235860496, -187500.02235174447, -187500.02235174447, -159626.05591130923, -187500.02235174447, -186759.9337410848, -187500.02235174447, -187500.02235174447, 0.482, 0.106, 0.866, 192.0, 0.0, 0.0, 0.0, 0.0, 0.0, 0.0, 0.0, 0.0, 0.0, 1.716197413078022E9, 0.0, 2024-05-20 12:30:13.078
92.0, -2875.350758475156, -187500.02235174447, -187500.02235174447, -159587.18622770146, -187500.02235174447, -186641.62595768285, -187500.02235174447, -187500.02235174447, 0.482, 0.106, 0.866, 192.0, 0.0, 0.0, 0.0, 0.0, 0.0, 0.0, 0.0, 0.0, 0.0, 1.7161974130840588E9, 0.0, 2024-05-20 12:30:13.084
93.0, -2875.1942962639687, -187500.02235174447, -187500.02235174447, -159679.90126370208, -187500.02235174447, -186655.57344622296, -187500.02235174447, -187500.02235174447, 0.482, 0.106, 0.866, 192.0, 0.0, 0.0, 0.0, 0.0, 0.0, 0.0, 0.0, 0.0, 0.0, 1.7161974130870523E9, 0.0, 2024-05-20 12:30:13.087
94.0, -2873.6743776410076, -187500.02235174447, -187500.02235174447, -159626.19002177598, -187500.02235174447, -186530.51543599553, -187500.02235174447, -187500.02235174447, 0.484, 0.106, 0.87, 192.0, 15.0, 32.0, 3.0, 80.0, 27.0, 48.0, 0.0, 0.0, 0.0, 1.7161974130901678E9, 0.0, 2024-05-20 12:30:13.090
95.0, -2869.4946014278653, -187500.02235174447, -187500.02235174447, -159495.9464068349, -187500.02235174447, -186330.48967486498, -187500.02235174447, -187500.02235174447, 0.484, 0.106, 0.87, 192.0, 0.0, 0.0, 0.0, 0.0, 0.0, 0.0, 0.0, 0.0, 0.0, 1.7161974130940945E9, 0.0, 2024-05-20 12:30:13.094
96.0, -2871.841534595673, -187500.02235174447, -187500.02235174447, -159411.90384768296, -187500.02235174447, -186164.32680658423, -187500.02235174447, -187500.02235174447, 0.484, 0.106, 0.87, 192.0, 0.0, 0.0, 0.0, 0.0, 0.0, 0.0, 0.0, 0.0, 0.0, 1.7161974130971E9, 0.0, 2024-05-20 12:30:13.097
97.0, -2884.179697535002, -187500.02235174447, -187500.02235174447, -159366.0157163162, -187500.02235174447, -186041.99570918034, -187500.02235174447, -187500.02235174447, 0.484, 0.106, 0.87, 192.0, 0.0, 0.0, 0.0, 0.0, 0.0, 0.0, 0.0, 0.0, 0.0, 1.716197413100114E9, 0.0, 2024-05-20 12:30:13.100
98.0, -2884.9843603353934, -187500.02235174447, -187500.02235174447, -159322.60862858398, -187500.02235174447, -185934.8861497505, -187500.02235174447, -187500.02235174447, 0.484, 0.106, 0.87, 192.0, 0.0, 0.0, 0.0, 0.0, 0.0, 0.0, 0.0, 0.0, 0.0, 1.716197413105126E9, 0.0, 2024-05-20 12:30:13.105
99.0, -2882.503316700854, -187500.02235174447, -187500.02235174447, -159324.39676814043, -187500.02235174447, -185869.55200070763, -187500.02235174447, -187500.02235174447, 0.484, 0.106, 0.87, 192.0, 0.0, 0.0, 0.0, 0.0, 0.0, 0.0, 0.0, 0.0, 0.0, 1.7161974131091561E9, 0.0, 2024-05-20 12:30:13.109
100.0, -2878.703520143452, -187500.02235174447, -187500.02235174447, -159221.35522620144, -187500.02235174447, -185689.19577469776, -187500.02235174447, -187500.02235174447, 0.484, 0.106, 0.87, 192.0, 0.0, 0.0, 0.0, 0.0, 0.0, 0.0, 0.0, 0.0, 0.0, 1.7161974131132932E9, 0.0, 2024-05-20 12:30:13.113
101.0, -2882.883296356594, -187500.02235174447, -187500.02235174447, -159130.83066115747, -187500.02235174447, -185517.82494995891, -187500.02235174447, -187500.02235174447, 0.484, 0.106, 0.87, 192.0, 0.0, 0.0, 0.0, 0.0, 0.0, 0.0, 0.0, 0.0, 0.0, 1.716197413117162E9, 0.0, 2024-05-20 12:30:13.117
102.0, -2892.0698633277257, -187500.02235174447, -187500.02235174447, -158991.84751413437, -187500.02235174447, -185298.46492987455, -187500.02235174447, -187500.02235174447, 0.484, 0.106, 0.87, 192.0, 0.0, 0.0, 0.0, 0.0, 0.0, 0.0, 0.0, 0.0, 0.0, 1.7161974131202145E9, 0.0, 2024-05-20 12:30:13.120
103.0, -2882.7044824009517, -187500.02235174447, -187500.02235174447, -159077.76761982057, -187500.02235174447, -185301.728284565, -187500.02235174447, -187500.02235174447, 0.484, 0.106, 0.87, 192.0, 0.0, 0.0, 0.0, 0.0, 0.0, 0.0, 0.0, 0.0, 0.0, 1.7161974131262264E9, 0.0, 2024-05-20 12:30:13.126
104.0, -2876.75891837584, -187500.02235174447, -187500.02235174447, -159052.33133463043, -187500.02235174447, -185203.89469908414, -187500.02235174447, -187500.02235174447, 0.482, 0.11, 0.872, 192.0, 15.0, 16.0, 3.0, 112.0, 27.0, 64.0, 0.0, 0.0, 0.0, 1.7161974131302252E9, 0.0, 2024-05-20 12:30:13.130
105.0, -2880.5587149332423, -187500.02235174447, -187500.02235174447, -158914.9128097192, -187500.02235174447, -184996.98460066135, -187500.02235174447, -187500.02235174447, 0.482, 0.11, 0.872, 192.0, 0.0, 0.0, 0.0, 0.0, 0.0, 0.0, 0.0, 0.0, 0.0, 1.7161974131332061E9, 0.0, 2024-05-20 12:30:13.133
106.0, -2909.0348373693037, -187500.02235174447, -187500.02235174447, -158822.46599465204, -187500.02235174447, -184825.03263056668, -187500.02235174447, -187500.02235174447, 0.482, 0.11, 0.872, 192.0, 0.0, 0.0, 0.0, 0.0, 0.0, 0.0, 0.0, 0.0, 0.0, 1.7161974131372452E9, 0.0, 2024-05-20 12:30:13.137
107.0, -2906.9114216460493, -187500.02235174447, -187500.02235174447, -158800.04719496338, -187500.02235174447, -184725.63442297393, -187500.02235174447, -187500.02235174447, 0.482, 0.11, 0.872, 192.0, 0.0, 0.0, 0.0, 0.0, 0.0, 0.0, 0.0, 0.0, 0.0, 1.716197413141439E9, 0.0, 2024-05-20 12:30:13.141
108.0, -2875.4848689418877, -187500.02235174447, -187500.02235174447, -158649.12821640115, -187500.02235174447, -184505.29092613352, -187500.02235174447, -187500.02235174447, 0.482, 0.11, 0.872, 192.0, 0.0, 0.0, 0.0, 0.0, 0.0, 0.0, 0.0, 0.0, 0.0, 1.7161974131453288E9, 0.0, 2024-05-20 12:30:13.145
109.0, -2870.791002606273, -187500.02235174447, -187500.02235174447, -158674.07276321325, -187500.02235174447, -184453.7925069085, -187500.02235174447, -187500.02235174447, 0.482, 0.11, 0.872, 192.0, 0.0, 0.0, 0.0, 0.0, 0.0, 0.0, 0.0, 0.0, 0.0, 1.7161974131483681E9, 0.0, 2024-05-20 12:30:13.148
110.0, -2898.842441897684, -187500.02235174447, -187500.02235174447, -158655.2972978708, -187500.02235174447, -184365.1678401432, -187500.02235174447, -187500.02235174447, 0.482, 0.11, 0.872, 192.0, 0.0, 0.0, 0.0, 0.0, 0.0, 0.0, 0.0, 0.0, 0.0, 1.7161974131523104E9, 0.0, 2024-05-20 12:30:13.152
111.0, -2906.4196832680327, -187500.02235174447, -187500.02235174447, -158541.90689824903, -187500.02235174447, -184184.29752401085, -187500.02235174447, -187500.02235174447, 0.482, 0.11, 0.872, 192.0, 0.0, 0.0, 0.0, 0.0, 0.0, 0.0, 0.0, 0.0, 0.0, 1.716197413156322E9, 0.0, 2024-05-20 12:30:13.156
112.0, -2900.250601798368, -187500.02235174447, -187500.02235174447, -158468.8613973691, -187500.02235174447, -184039.5476269183, -187500.02235174447, -187500.02235174447, 0.482, 0.11, 0.872, 192.0, 0.0, 0.0, 0.0, 0.0, 0.0, 0.0, 0.0, 0.0, 0.0, 1.7161974131603951E9, 0.0, 2024-05-20 12:30:13.160
113.0, -2905.995000123382, -187500.02235174447, -187500.02235174447, -158434.9985045193, -187500.02235174447, -183935.27673903428, -187500.02235174447, -187500.02235174447, 0.482, 0.11, 0.872, 192.0, 0.0, 0.0, 0.0, 0.0, 0.0, 0.0, 0.0, 0.0, 0.0, 1.7161974131653402E9, 0.0, 2024-05-20 12:30:13.165
114.0, -2902.1952035659797, -187500.02235174447, -187500.02235174447, -158318.83648858508, -187500.02235174447, -183744.7281175528, -187500.02235174447, -187500.02235174447, 0.47600000000000003, 0.108, 0.872, 192.0, 14.0, 224.0, 3.0, 96.0, 27.0, 64.0, 0.0, 0.0, 0.0, 1.7161974131693645E9, 0.0, 2024-05-20 12:30:13.169
115.0, -2893.2321540394014, -187500.02235174447, -187500.02235174447, -158327.9336485784, -187500.02235174447, -183675.16948880788, -187500.02235174447, -187500.02235174447, 0.47600000000000003, 0.108, 0.872, 192.0, 0.0, 0.0, 0.0, 0.0, 0.0, 0.0, 0.0, 0.0, 0.0, 1.716197413173398E9, 0.0, 2024-05-20 12:30:13.173
116.0, -2903.5810117222086, -187500.02235174447, -187500.02235174447, -158261.99600243522, -187500.02235174447, -183540.0308418311, -187500.02235174447, -187500.02235174447, 0.47600000000000003, 0.108, 0.872, 192.0, 0.0, 0.0, 0.0, 0.0, 0.0, 0.0, 0.0, 0.0, 0.0, 1.716197413176396E9, 0.0, 2024-05-20 12:30:13.176
117.0, -2913.0134478823484, -187500.02235174447, -187500.02235174447, -158175.3829926709, -187500.02235174447, -183377.9359910412, -187500.02235174447, -187500.02235174447, 0.47600000000000003, 0.108, 0.872, 192.0, 0.0, 0.0, 0.0, 0.0, 0.0, 0.0, 0.0, 0.0, 0.0, 1.7161974131804583E9, 0.0, 2024-05-20 12:30:13.180
118.0, -2918.2214043404347, -187500.02235174447, -187500.02235174447, -158137.31797186352, -187500.02235174447, -183266.49019318703, -187500.02235174447, -187500.02235174447, 0.47600000000000003, 0.108, 0.872, 192.0, 0.0, 0.0, 0.0, 0.0, 0.0, 0.0, 0.0, 0.0, 0.0, 1.7161974131845226E9, 0.0, 2024-05-20 12:30:13.184
119.0, -2903.8045291667618, -187500.02235174447, -187500.02235174447, -158048.78271207603, -187500.02235174447, -183106.9210895206, -187500.02235174447, -187500.02235174447, 0.47600000000000003, 0.108, 0.872, 192.0, 0.0, 0.0, 0.0, 0.0, 0.0, 0.0, 0.0, 0.0, 0.0, 1.7161974131885123E9, 0.0, 2024-05-20 12:30:13.188
120.0, -2873.9649503189266, -187500.02235174447, -187500.02235174447, -157897.5731608359, -187500.02235174447, -182873.34535996264, -187500.02235174447, -187500.02235174447, 0.47600000000000003, 0.108, 0.872, 192.0, 0.0, 0.0, 0.0, 0.0, 0.0, 0.0, 0.0, 0.0, 0.0, 1.7161974131925273E9, 0.0, 2024-05-20 12:30:13.192
121.0, -2888.739453403885, -187500.02235174447, -187500.02235174447, -157847.259384067, -187500.02235174447, -182744.19698049987, -187500.02235174447, -187500.02235174447, 0.47600000000000003, 0.108, 0.872, 192.0, 0.0, 0.0, 0.0, 0.0, 0.0, 0.0, 0.0, 0.0, 0.0, 1.716197413197492E9, 0.0, 2024-05-20 12:30:13.197
122.0, -2910.912383903549, -187500.02235174447, -187500.02235174447, -157811.16131677167, -187500.02235174447, -182640.7531071607, -187500.02235174447, -187500.02235174447, 0.47600000000000003, 0.108, 0.872, 192.0, 0.0, 0.0, 0.0, 0.0, 0.0, 0.0, 0.0, 0.0, 0.0, 1.7161974132015E9, 0.0, 2024-05-20 12:30:13.201
123.0, -2918.154349107069, -187500.02235174447, -187500.02235174447, -157708.25388529943, -187500.02235174447, -182474.67964585777, -187500.02235174447, -187500.02235174447, 0.47600000000000003, 0.108, 0.872, 192.0, 0.0, 0.0, 0.0, 0.0, 0.0, 0.0, 0.0, 0.0, 0.0, 1.7161974132055285E9, 0.0, 2024-05-20 12:30:13.205
124.0, -2906.7102559459518, -187500.02235174447, -187500.02235174447, -157702.1295073187, -187500.02235174447, -182395.59917397492, -187500.02235174447, -187500.02235174447, 0.48, 0.10400000000000001, 0.864, 192.0, 15.0, 0.0, 3.0, 64.0, 27.0, 0.0, 0.0, 0.0, 0.0, 1.7161974132095478E9, 0.0, 2024-05-20 12:30:13.209
125.0, -2880.223438766413, -187500.02235174447, -187500.02235174447, -157653.08977998374, -187500.02235174447, -182276.03969288347, -187500.02235174447, -187500.02235174447, 0.48, 0.10400000000000001, 0.864, 192.0, 0.0, 0.0, 0.0, 0.0, 0.0, 0.0, 0.0, 0.0, 0.0, 1.7161974132135189E9, 0.0, 2024-05-20 12:30:13.213
126.0, -2872.176810762502, -187500.02235174447, -187500.02235174447, -157410.148669499, -187500.02235174447, -181967.2503432334, -187500.02235174447, -187500.02235174447, 0.48, 0.10400000000000001, 0.864, 192.0, 0.0, 0.0, 0.0, 0.0, 0.0, 0.0, 0.0, 0.0, 0.0, 1.716197413217528E9, 0.0, 2024-05-20 12:30:13.217
127.0, -2900.921154132027, -187500.02235174447, -187500.02235174447, -157311.4880694733, -187500.02235174447, -181789.9563062139, -187500.02235174447, -187500.02235174447, 0.48, 0.10400000000000001, 0.864, 192.0, 0.0, 0.0, 0.0, 0.0, 0.0, 0.0, 0.0, 0.0, 0.0, 1.7161974132205908E9, 0.0, 2024-05-20 12:30:13.220
128.0, -2922.311773575756, -187500.02235174447, -187500.02235174447, -157362.0477154312, -187500.02235174447, -181758.1944773429, -187500.02235174447, -187500.02235174447, 0.48, 0.10400000000000001, 0.864, 192.0, 0.0, 0.0, 0.0, 0.0, 0.0, 0.0, 0.0, 0.0, 0.0, 1.7161974132266185E9, 0.0, 2024-05-20 12:30:13.226
129.0, -2925.888052688605, -187500.02235174447, -187500.02235174447, -157315.84665964206, -187500.02235174447, -181643.41826956492, -187500.02235174447, -187500.02235174447, 0.48, 0.10400000000000001, 0.864, 192.0, 0.0, 0.0, 0.0, 0.0, 0.0, 0.0, 0.0, 0.0, 0.0, 1.7161974132305896E9, 0.0, 2024-05-20 12:30:13.230
130.0, -2919.3613433076553, -187500.02235174447, -187500.02235174447, -157186.56416971257, -187500.02235174447, -181444.1748194903, -187500.02235174447, -187500.02235174447, 0.48, 0.10400000000000001, 0.864, 192.0, 0.0, 0.0, 0.0, 0.0, 0.0, 0.0, 0.0, 0.0, 0.0, 1.7161974132346158E9, 0.0, 2024-05-20 12:30:13.234
131.0, -2919.607212496664, -187500.02235174447, -187500.02235174447, -157085.84720919697, -187500.02235174447, -181270.85939298387, -187500.02235174447, -187500.02235174447, 0.48, 0.10400000000000001, 0.864, 192.0, 0.0, 0.0, 0.0, 0.0, 0.0, 0.0, 0.0, 0.0, 0.0, 1.716197413237619E9, 0.0, 2024-05-20 12:30:13.237
132.0, -2909.347761791678, -187500.02235174447, -187500.02235174447, -156952.0943703764, -187500.02235174447, -181064.61984689473, -187500.02235174447, -187500.02235174447, 0.48, 0.10400000000000001, 0.864, 192.0, 0.0, 0.0, 0.0, 0.0, 0.0, 0.0, 0.0, 0.0, 0.0, 1.7161974132406201E9, 0.0, 2024-05-20 12:30:13.240
133.0, -2883.0174068233264, -187500.02235174447, -187500.02235174447, -156997.3566528984, -187500.02235174447, -181039.11650647124, -187500.02235174447, -187500.02235174447, 0.48, 0.108, 0.87, 192.0, 15.0, 0.0, 3.0, 96.0, 27.0, 48.0, 0.0, 0.0, 0.0, 1.7161974132466893E9, 0.0, 2024-05-20 12:30:13.246
134.0, -2826.7580660293183, -187500.02235174447, -187500.02235174447, -156967.09239090592, -187500.02235174447, -180946.3120634928, -187500.02235174447, -187500.02235174447, 0.48, 0.108, 0.87, 192.0, 0.0, 0.0, 0.0, 0.0, 0.0, 0.0, 0.0, 0.0, 0.0, 1.716197413249663E9, 0.0, 2024-05-20 12:30:13.249
135.0, -2837.4645516234104, -187500.02235174447, -187500.02235174447, -156823.19186010264, -187500.02235174447, -180739.62548251456, -187500.02235174447, -187500.02235174447, 0.48, 0.108, 0.87, 192.0, 0.0, 0.0, 0.0, 0.0, 0.0, 0.0, 0.0, 0.0, 0.0, 1.716197413252662E9, 0.0, 2024-05-20 12:30:13.252
136.0, -2882.1456887895692, -187500.02235174447, -187500.02235174447, -156668.718954172, -187500.02235174447, -180510.27423265867, -187500.02235174447, -187500.02235174447, 0.48, 0.108, 0.87, 192.0, 0.0, 0.0, 0.0, 0.0, 0.0, 0.0, 0.0, 0.0, 0.0, 1.7161974132566826E9, 0.0, 2024-05-20 12:30:13.256
137.0, -2950.6761372895407, -187500.02235174447, -187500.02235174447, -156634.67724736658, -187500.02235174447, -180398.29199293756, -187500.02235174447, -187500.02235174447, 0.48, 0.108, 0.87, 192.0, 0.0, 0.0, 0.0, 0.0, 0.0, 0.0, 0.0, 0.0, 0.0, 1.716197413259707E9, 0.0, 2024-05-20 12:30:13.259
138.0, -2904.1398053335915, -187500.02235174447, -187500.02235174447, -156555.79794118382, -187500.02235174447, -180254.57027608994, -187500.02235174447, -187500.02235174447, 0.48, 0.108, 0.87, 192.0, 0.0, 0.0, 0.0, 0.0, 0.0, 0.0, 0.0, 0.0, 0.0, 1.7161974132647886E9, 0.0, 2024-05-20 12:30:13.264
139.0, -2933.8676254591496, -187500.02235174447, -187500.02235174447, -156393.7701456273, -187500.02235174447, -180032.3492327153, -187500.02235174447, -187500.02235174447, 0.48, 0.108, 0.87, 192.0, 0.0, 0.0, 0.0, 0.0, 0.0, 0.0, 0.0, 0.0, 0.0, 1.7161974132687595E9, 0.0, 2024-05-20 12:30:13.268
140.0, -2899.3341802757004, -187500.02235174447, -187500.02235174447, -156281.96671986184, -187500.02235174447, -179849.1990386485, -187500.02235174447, -187500.02235174447, 0.48, 0.108, 0.87, 192.0, 0.0, 0.0, 0.0, 0.0, 0.0, 0.0, 0.0, 0.0, 0.0, 1.7161974132727723E9, 0.0, 2024-05-20 12:30:13.272
141.0, -2885.5878574356866, -187500.02235174447, -187500.02235174447, -156309.5934760086, -187500.02235174447, -179803.95910787096, -187500.02235174447, -187500.02235174447, 0.48, 0.108, 0.87, 192.0, 0.0, 0.0, 0.0, 0.0, 0.0, 0.0, 0.0, 0.0, 0.0, 1.7161974132768147E9, 0.0, 2024-05-20 12:30:13.276
142.0, -2970.815059043772, -187500.02235174447, -187500.02235174447, -156234.2680971942, -187500.02235174447, -179663.94778060293, -187500.02235174447, -187500.02235174447, 0.48, 0.108, 0.87, 192.0, 0.0, 0.0, 0.0, 0.0, 0.0, 0.0, 0.0, 0.0, 0.0, 1.716197413280816E9, 0.0, 2024-05-20 12:30:13.280
143.0, -2970.859762532683, -187500.02235174447, -187500.02235174447, -156169.93977665185, -187500.02235174447, -179537.19103779687, -187500.02235174447, -187500.02235174447, 0.484, 0.10200000000000001, 0.872, 192.0, 15.0, 32.0, 3.0, 48.0, 27.0, 64.0, 0.0, 0.0, 0.0, 1.7161974132848077E9, 0.0, 2024-05-20 12:30:13.284
144.0, -2933.8676254591496, -187500.02235174447, -187500.02235174447, -156037.5727459875, -187500.02235174447, -179337.79112551108, -187500.02235174447, -187500.02235174447, 0.484, 0.10200000000000001, 0.872, 192.0, 0.0, 0.0, 0.0, 0.0, 0.0, 0.0, 0.0, 0.0, 0.0, 1.7161974132878275E9, 0.0, 2024-05-20 12:30:13.287
145.0, -3020.5029869679197, -187500.02235174447, -187500.02235174447, -155888.79953489298, -187500.02235174447, -179109.64686985576, -187500.02235174447, -187500.02235174447, 0.484, 0.10200000000000001, 0.872, 192.0, 0.0, 0.0, 0.0, 0.0, 0.0, 0.0, 0.0, 0.0, 0.0, 1.716197413293883E9, 0.0, 2024-05-20 12:30:13.293
146.0, -3064.2900543558662, -187500.02235174447, -187500.02235174447, -155684.6387010382, -187500.02235174447, -178824.17038967257, -187500.02235174447, -187500.02235174447, 0.484, 0.10200000000000001, 0.872, 192.0, 0.0, 0.0, 0.0, 0.0, 0.0, 0.0, 0.0, 0.0, 0.0, 1.7161974132978635E9, 0.0, 2024-05-20 12:30:13.297
147.0, -3065.184124134079, -187500.02235174447, -187500.02235174447, -155613.26958099243, -187500.02235174447, -178675.79950997824, -187500.02235174447, -187500.02235174447, 0.484, 0.10200000000000001, 0.872, 192.0, 0.0, 0.0, 0.0, 0.0, 0.0, 0.0, 0.0, 0.0, 0.0, 1.716197413301864E9, 0.0, 2024-05-20 12:30:13.301
148.0, -3049.64966173764, -187500.02235174447, -187500.02235174447, -155638.25883129347, -187500.02235174447, -178633.97939610237, -187500.02235174447, -187500.02235174447, 0.484, 0.10200000000000001, 0.872, 192.0, 0.0, 0.0, 0.0, 0.0, 0.0, 0.0, 0.0, 0.0, 0.0, 1.7161974133069007E9, 0.0, 2024-05-20 12:30:13.306
149.0, -3025.308612025811, -187500.02235174447, -187500.02235174447, -155570.73421129398, -187500.02235174447, -178503.5793189501, -187500.02235174447, -187500.02235174447, 0.484, 0.10200000000000001, 0.872, 192.0, 0.0, 0.0, 0.0, 0.0, 0.0, 0.0, 0.0, 0.0, 0.0, 1.71619741330993E9, 0.0, 2024-05-20 12:30:13.309
150.0, -2977.408823658088, -187500.02235174447, -187500.02235174447, -155452.38172440312, -187500.02235174447, -178322.93252026231, -187500.02235174447, -187500.02235174447, 0.484, 0.10200000000000001, 0.872, 192.0, 0.0, 0.0, 0.0, 0.0, 0.0, 0.0, 0.0, 0.0, 0.0, 1.7161974133129034E9, 0.0, 2024-05-20 12:30:13.312
151.0, -2944.6411662866076, -187500.02235174447, -187500.02235174447, -155312.72802504635, -187500.02235174447, -178108.02049732453, -187500.02235174447, -187500.02235174447, 0.484, 0.10200000000000001, 0.872, 192.0, 0.0, 0.0, 0.0, 0.0, 0.0, 0.0, 0.0, 0.0, 0.0, 1.7161974133159208E9, 0.0, 2024-05-20 12:30:13.315
152.0, -2897.85896514165, -187500.02235174447, -187500.02235174447, -155218.20249774487, -187500.02235174447, -177939.6001028538, -187500.02235174447, -187500.02235174447, 0.484, 0.10200000000000001, 0.872, 192.0, 0.0, 0.0, 0.0, 0.0, 0.0, 0.0, 0.0, 0.0, 0.0, 1.7161974133199432E9, 0.0, 2024-05-20 12:30:13.319
153.0, -2993.882059321649, -187500.02235174447, -187500.02235174447, -155206.87016330604, -187500.02235174447, -177862.59834320526, -187500.02235174447, -187500.02235174447, 0.48, 0.106, 0.872, 192.0, 15.0, 0.0, 3.0, 80.0, 27.0, 64.0, 0.0, 0.0, 0.0, 1.7161974133249729E9, 0.0, 2024-05-20 12:30:13.324
154.0, -3211.096311938323, -187500.02235174447, -187500.02235174447, -155145.33581082057, -187500.02235174447, -177739.57434172326, -187500.02235174447, -187500.02235174447, 0.48, 0.106, 0.872, 192.0, 0.0, 0.0, 0.0, 0.0, 0.0, 0.0, 0.0, 0.0, 0.0, 1.7161974133299828E9, 0.0, 2024-05-20 12:30:13.329
155.0, -3073.3872143491762, -187500.02235174447, -187500.02235174447, -154912.20711615172, -187500.02235174447, -177445.3806812025, -187500.02235174447, -187500.02235174447, 0.48, 0.106, 0.872, 192.0, 0.0, 0.0, 0.0, 0.0, 0.0, 0.0, 0.0, 0.0, 0.0, 1.7161974133329818E9, 0.0, 2024-05-20 12:30:13.332
156.0, -2989.8140418307835, -187500.02235174447, -187500.02235174447, -154820.07322550693, -187500.02235174447, -177284.82810078003, -187500.02235174447, -187500.02235174447, 0.48, 0.106, 0.872, 192.0, 0.0, 0.0, 0.0, 0.0, 0.0, 0.0, 0.0, 0.0, 0.0, 1.7161974133369975E9, 0.0, 2024-05-20 12:30:13.336
157.0, -3078.7516330184503, -187500.02235174447, -187500.02235174447, -154764.50678879104, -187500.02235174447, -177162.8769830319, -187500.02235174447, -187500.02235174447, 0.48, 0.106, 0.872, 192.0, 0.0, 0.0, 0.0, 0.0, 0.0, 0.0, 0.0, 0.0, 0.0, 1.716197413340027E9, 0.0, 2024-05-20 12:30:13.340
158.0, -3090.37454013521, -187500.02235174447, -187500.02235174447, -154678.58668310483, -187500.02235174447, -177010.6839550357, -187500.02235174447, -187500.02235174447, 0.48, 0.106, 0.872, 192.0, 0.0, 0.0, 0.0, 0.0, 0.0, 0.0, 0.0, 0.0, 0.0, 1.7161974133440523E9, 0.0, 2024-05-20 12:30:13.344
159.0, -3093.2802669144, -187500.02235174447, -187500.02235174447, -154588.9338360946, -187500.02235174447, -176862.0895578968, -187500.02235174447, -187500.02235174447, 0.48, 0.106, 0.872, 192.0, 0.0, 0.0, 0.0, 0.0, 0.0, 0.0, 0.0, 0.0, 0.0, 1.71619741334806E9, 0.0, 2024-05-20 12:30:13.348
160.0, -3064.245350866956, -187500.02235174447, -187500.02235174447, -154392.7972784993, -187500.02235174447, -176599.8365402027, -187500.02235174447, -187500.02235174447, 0.48, 0.106, 0.872, 192.0, 0.0, 0.0, 0.0, 0.0, 0.0, 0.0, 0.0, 0.0, 0.0, 1.716197413352058E9, 0.0, 2024-05-20 12:30:13.352
161.0, -3132.462874944553, -187500.02235174447, -187500.02235174447, -154308.3747396916, -187500.02235174447, -176440.78152665874, -187500.02235174447, -187500.02235174447, 0.48, 0.106, 0.872, 192.0, 0.0, 0.0, 0.0, 0.0, 0.0, 0.0, 0.0, 0.0, 0.0, 1.7161974133571093E9, 0.0, 2024-05-20 12:30:13.357
162.0, -3170.729061452039, -187500.02235174447, -187500.02235174447, -154258.4632943229, -187500.02235174447, -176326.0723741141, -187500.02235174447, -187500.02235174447, 0.48, 0.106, 0.872, 192.0, 0.0, 0.0, 0.0, 0.0, 0.0, 0.0, 0.0, 0.0, 0.0, 1.7161974133620975E9, 0.0, 2024-05-20 12:30:13.362
163.0, -3083.6466650541624, -187500.02235174447, -187500.02235174447, -154080.87868462547, -187500.02235174447, -176085.18762411925, -187500.02235174447, -187500.02235174447, 0.484, 0.10400000000000001, 0.872, 192.0, 15.0, 32.0, 3.0, 64.0, 27.0, 64.0, 0.0, 0.0, 0.0, 1.7161974133660977E9, 0.0, 2024-05-20 12:30:13.366
164.0, -3061.1384583876684, -187500.02235174447, -187500.02235174447, -153982.30749157758, -187500.02235174447, -175908.65354641122, -187500.02235174447, -187500.02235174447, 0.484, 0.10400000000000001, 0.872, 192.0, 0.0, 0.0, 0.0, 0.0, 0.0, 0.0, 0.0, 0.0, 0.0, 1.7161974133691201E9, 0.0, 2024-05-20 12:30:13.369
165.0, -3085.0324732103913, -187500.02235174447, -187500.02235174447, -153947.34936324946, -187500.02235174447, -175801.92396663714, -187500.02235174447, -187500.02235174447, 0.484, 0.10400000000000001, 0.872, 192.0, 0.0, 0.0, 0.0, 0.0, 0.0, 0.0, 0.0, 0.0, 0.0, 1.7161974133721132E9, 0.0, 2024-05-20 12:30:13.372
166.0, -3181.234381346033, -187500.02235174447, -187500.02235174447, -153782.5052478916, -187500.02235174447, -175576.08194066072, -187500.02235174447, -187500.02235174447, 0.484, 0.10400000000000001, 0.872, 192.0, 0.0, 0.0, 0.0, 0.0, 0.0, 0.0, 0.0, 0.0, 0.0, 1.7161974133761563E9, 0.0, 2024-05-20 12:30:13.376
167.0, -3159.8661136467595, -187500.02235174447, -187500.02235174447, -153621.88561223575, -187500.02235174447, -175347.133022205, -187500.02235174447, -187500.02235174447, 0.484, 0.10400000000000001, 0.872, 192.0, 0.0, 0.0, 0.0, 0.0, 0.0, 0.0, 0.0, 0.0, 0.0, 1.7161974133821628E9, 0.0, 2024-05-20 12:30:13.382
168.0, -3225.848463278826, -187500.02235174447, -187500.02235174447, -153652.68631609518, -187500.02235174447, -175305.5811292626, -187500.02235174447, -187500.02235174447, 0.484, 0.10400000000000001, 0.872, 192.0, 0.0, 0.0, 0.0, 0.0, 0.0, 0.0, 0.0, 0.0, 0.0, 1.7161974133851707E9, 0.0, 2024-05-20 12:30:13.385
169.0, -3129.378334209721, -187500.02235174447, -187500.02235174447, -153539.13945426221, -187500.02235174447, -175129.35997597696, -187500.02235174447, -187500.02235174447, 0.484, 0.10400000000000001, 0.872, 192.0, 0.0, 0.0, 0.0, 0.0, 0.0, 0.0, 0.0, 0.0, 0.0, 1.716197413389202E9, 0.0, 2024-05-20 12:30:13.389
170.0, -2974.8383730457276, -187500.02235174447, -187500.02235174447, -153336.56559426375, -187500.02235174447, -174859.28384772348, -187500.02235174447, -187500.02235174447, 0.484, 0.10400000000000001, 0.872, 192.0, 0.0, 0.0, 0.0, 0.0, 0.0, 0.0, 0.0, 0.0, 0.0, 1.716197413392208E9, 0.0, 2024-05-20 12:30:13.392
171.0, -3167.823334672849, -187500.02235174447, -187500.02235174447, -153201.67281647597, -187500.02235174447, -174651.41262428914, -187500.02235174447, -187500.02235174447, 0.484, 0.10400000000000001, 0.872, 192.0, 0.0, 0.0, 0.0, 0.0, 0.0, 0.0, 0.0, 0.0, 0.0, 1.7161974133962743E9, 0.0, 2024-05-20 12:30:13.396
172.0, -3194.7348349970384, -187500.02235174447, -187500.02235174447, -153100.77704200472, -187500.02235174447, -174490.32360199973, -187500.02235174447, -187500.02235174447, 0.486, 0.108, 0.868, 192.0, 15.0, 48.0, 3.0, 96.0, 27.0, 32.0, 0.0, 0.0, 0.0, 1.7161974134002335E9, 0.0, 2024-05-20 12:30:13.400
173.0, -3276.1175365588115, -187500.02235174447, -187500.02235174447, -153074.26787308074, -187500.02235174447, -174405.9681184254, -187500.02235174447, -187500.02235174447, 0.486, 0.108, 0.868, 192.0, 0.0, 0.0, 0.0, 0.0, 0.0, 0.0, 0.0, 0.0, 0.0, 1.7161974134042685E9, 0.0, 2024-05-20 12:30:13.404
174.0, -3183.424852302653, -187500.02235174447, -187500.02235174447, -152969.1029154185, -187500.02235174447, -174231.71391865183, -187500.02235174447, -187500.02235174447, 0.486, 0.108, 0.868, 192.0, 0.0, 0.0, 0.0, 0.0, 0.0, 0.0, 0.0, 0.0, 0.0, 1.716197413408252E9, 0.0, 2024-05-20 12:30:13.408
175.0, -3043.122952356691, -187500.02235174447, -187500.02235174447, -152831.14794864034, -187500.02235174447, -174025.8767039629, -187500.02235174447, -187500.02235174447, 0.486, 0.108, 0.868, 192.0, 0.0, 0.0, 0.0, 0.0, 0.0, 0.0, 0.0, 0.0, 0.0, 1.7161974134123142E9, 0.0, 2024-05-20 12:30:13.412
176.0, -3114.3579619357542, -187500.02235174447, -187500.02235174447, -152654.2785947655, -187500.02235174447, -173776.29712537493, -187500.02235174447, -187500.02235174447, 0.486, 0.108, 0.868, 192.0, 0.0, 0.0, 0.0, 0.0, 0.0, 0.0, 0.0, 0.0, 0.0, 1.7161974134173226E9, 0.0, 2024-05-20 12:30:13.417
177.0, -3193.4160820741754, -187500.02235174447, -187500.02235174447, -152560.49067503103, -187500.02235174447, -173615.18575134108, -187500.02235174447, -187500.02235174447, 0.486, 0.108, 0.868, 192.0, 0.0, 0.0, 0.0, 0.0, 0.0, 0.0, 0.0, 0.0, 0.0, 1.7161974134203277E9, 0.0, 2024-05-20 12:30:13.420
178.0, -3251.6647281247056, -187500.02235174447, -187500.02235174447, -152481.499610126, -187500.02235174447, -173473.34158102772, -187500.02235174447, -187500.02235174447, 0.486, 0.108, 0.868, 192.0, 0.0, 0.0, 0.0, 0.0, 0.0, 0.0, 0.0, 0.0, 0.0, 1.7161974134243157E9, 0.0, 2024-05-20 12:30:13.424
179.0, -3138.43079071412, -187500.02235174447, -187500.02235174447, -152389.4104229701, -187500.02235174447, -173320.67916639795, -187500.02235174447, -187500.02235174447, 0.486, 0.108, 0.868, 192.0, 0.0, 0.0, 0.0, 0.0, 0.0, 0.0, 0.0, 0.0, 0.0, 1.7161974134283404E9, 0.0, 2024-05-20 12:30:13.428
180.0, -3106.110168231746, -187500.02235174447, -187500.02235174447, -152216.25145867484, -187500.02235174447, -173089.27155605218, -187500.02235174447, -187500.02235174447, 0.486, 0.108, 0.868, 192.0, 0.0, 0.0, 0.0, 0.0, 0.0, 0.0, 0.0, 0.0, 0.0, 1.7161974134323692E9, 0.0, 2024-05-20 12:30:13.432
181.0, -3131.345287721788, -187500.02235174447, -187500.02235174447, -152076.28483489572, -187500.02235174447, -172881.06505645099, -187500.02235174447, -187500.02235174447, 0.486, 0.108, 0.868, 192.0, 0.0, 0.0, 0.0, 0.0, 0.0, 0.0, 0.0, 0.0, 0.0, 1.7161974134384096E9, 0.0, 2024-05-20 12:30:13.438
182.0, -3176.1158318657676, -187500.02235174447, -187500.02235174447, -152001.00415957024, -187500.02235174447, -172737.49980181456, -187500.02235174447, -187500.02235174447, 0.482, 0.11, 0.872, 192.0, 15.0, 16.0, 3.0, 112.0, 27.0, 64.0, 0.0, 0.0, 0.0, 1.7161974134413867E9, 0.0, 2024-05-20 12:30:13.441
183.0, -3225.468483623086, -187500.02235174447, -187500.02235174447, -151858.35532645648, -187500.02235174447, -172532.5119534149, -187500.02235174447, -187500.02235174447, 0.482, 0.11, 0.872, 192.0, 0.0, 0.0, 0.0, 0.0, 0.0, 0.0, 0.0, 0.0, 0.0, 1.7161974134465744E9, 0.0, 2024-05-20 12:30:13.446
184.0, -3310.829795697903, -187500.02235174447, -187500.02235174447, -151832.44965463277, -187500.02235174447, -172435.70654817898, -187500.02235174447, -187500.02235174447, 0.482, 0.11, 0.872, 192.0, 0.0, 0.0, 0.0, 0.0, 0.0, 0.0, 0.0, 0.0, 0.0, 1.7161974134495227E9, 0.0, 2024-05-20 12:30:13.449
185.0, -3229.111817969301, -187500.02235174447, -187500.02235174447, -151658.37426881483, -187500.02235174447, -172196.96756565187, -187500.02235174447, -187500.02235174447, 0.482, 0.11, 0.872, 192.0, 0.0, 0.0, 0.0, 0.0, 0.0, 0.0, 0.0, 0.0, 0.0, 1.7161974134534936E9, 0.0, 2024-05-20 12:30:13.453
186.0, -3225.3790766452644, -187500.02235174447, -187500.02235174447, -151550.81767449592, -187500.02235174447, -172029.24007525924, -187500.02235174447, -187500.02235174447, 0.482, 0.11, 0.872, 192.0, 0.0, 0.0, 0.0, 0.0, 0.0, 0.0, 0.0, 0.0, 0.0, 1.7161974134564836E9, 0.0, 2024-05-20 12:30:13.456
187.0, -3125.6455928856844, -187500.02235174447, -187500.02235174447, -151395.60716099825, -187500.02235174447, -171811.98111915364, -187500.02235174447, -187500.02235174447, 0.482, 0.11, 0.872, 192.0, 0.0, 0.0, 0.0, 0.0, 0.0, 0.0, 0.0, 0.0, 0.0, 1.7161974134614885E9, 0.0, 2024-05-20 12:30:13.461
188.0, -2911.515881003843, -187500.02235174447, -187500.02235174447, -151332.19526197854, -187500.02235174447, -171683.01155364653, -187500.02235174447, -187500.02235174447, 0.482, 0.11, 0.872, 192.0, 0.0, 0.0, 0.0, 0.0, 0.0, 0.0, 0.0, 0.0, 0.0, 1.7161974134675276E9, 0.0, 2024-05-20 12:30:13.467
189.0, -3124.237432985, -187500.02235174447, -187500.02235174447, -151229.46664446197, -187500.02235174447, -171522.2354557795, -187500.02235174447, -187500.02235174447, 0.482, 0.11, 0.872, 192.0, 0.0, 0.0, 0.0, 0.0, 0.0, 0.0, 0.0, 0.0, 0.0, 1.7161974134708626E9, 0.0, 2024-05-20 12:30:13.470
190.0, -3391.4748896926512, -187500.02235174447, -187500.02235174447, -151201.32579819273, -187500.02235174447, -171428.69340523405, -187500.02235174447, -187500.02235174447, 0.482, 0.11, 0.872, 192.0, 0.0, 0.0, 0.0, 0.0, 0.0, 0.0, 0.0, 0.0, 0.0, 1.7161974134748907E9, 0.0, 2024-05-20 12:30:13.474
191.0, -3192.611419273784, -187500.02235174447, -187500.02235174447, -150987.86663864454, -187500.02235174447, -171156.136233346, -187500.02235174447, -187500.02235174447, 0.482, 0.11, 0.872, 192.0, 0.0, 0.0, 0.0, 0.0, 0.0, 0.0, 0.0, 0.0, 0.0, 1.716197413477518E9, 0.0, 2024-05-20 12:30:13.477
192.0, -3097.5718018498187, -187500.02235174447, -187500.02235174447, -150782.1411826779, -187500.02235174447, -170883.3778957579, -187500.02235174447, -187500.02235174447, 0.47600000000000003, 0.10400000000000001, 0.876, 192.0, 14.0, 224.0, 3.0, 64.0, 27.0, 96.0, 0.0, 0.0, 0.0, 1.7161974134805365E9, 0.0, 2024-05-20 12:30:13.480
193.0, -3172.5395527529186, -187500.02235174447, -187500.02235174447, -150743.31620255904, -187500.02235174447, -170780.5598712635, -187500.02235174447, -187500.02235174447, 0.47600000000000003, 0.10400000000000001, 0.876, 192.0, 0.0, 0.0, 0.0, 0.0, 0.0, 0.0, 0.0, 0.0, 0.0, 1.7161974134845517E9, 0.0, 2024-05-20 12:30:13.484
194.0, -3353.745145052093, -187500.02235174447, -187500.02235174447, -150637.3689338409, -187500.02235174447, -170619.269683274, -187500.02235174447, -187500.02235174447, 0.47600000000000003, 0.10400000000000001, 0.876, 192.0, 0.0, 0.0, 0.0, 0.0, 0.0, 0.0, 0.0, 0.0, 0.0, 1.71619741348856E9, 0.0, 2024-05-20 12:30:13.488
195.0, -3431.1268843563657, -187500.02235174447, -187500.02235174447, -150445.99329781454, -187500.02235174447, -170360.6599999261, -187500.02235174447, -187500.02235174447, 0.47600000000000003, 0.10400000000000001, 0.876, 192.0, 0.0, 0.0, 0.0, 0.0, 0.0, 0.0, 0.0, 0.0, 0.0, 1.7161974134926183E9, 0.0, 2024-05-20 12:30:13.492
196.0, -3367.71498533666, -187500.02235174447, -187500.02235174447, -150315.01207530644, -187500.02235174447, -170155.60509629312, -187500.02235174447, -187500.02235174447, 0.47600000000000003, 0.10400000000000001, 0.876, 192.0, 0.0, 0.0, 0.0, 0.0, 0.0, 0.0, 0.0, 0.0, 0.0, 1.7161974134966033E9, 0.0, 2024-05-20 12:30:13.496
197.0, -3254.7939723484487, -187500.02235174447, -187500.02235174447, -150110.8288897072, -187500.02235174447, -169884.63489826143, -187500.02235174447, -187500.02235174447, 0.47600000000000003, 0.10400000000000001, 0.876, 192.0, 0.0, 0.0, 0.0, 0.0, 0.0, 0.0, 0.0, 0.0, 0.0, 1.716197413499643E9, 0.0, 2024-05-20 12:30:13.499
198.0, -3183.402500558198, -187500.02235174447, -187500.02235174447, -150062.0126798168, -187500.02235174447, -169775.3125161305, -187500.02235174447, -187500.02235174447, 0.47600000000000003, 0.10400000000000001, 0.876, 192.0, 0.0, 0.0, 0.0, 0.0, 0.0, 0.0, 0.0, 0.0, 0.0, 1.7161974135036664E9, 0.0, 2024-05-20 12:30:13.503
199.0, -3152.4453344875974, -187500.02235174447, -187500.02235174447, -150058.30229023725, -187500.02235174447, -169714.71693691218, -187500.02235174447, -187500.02235174447, 0.47600000000000003, 0.10400000000000001, 0.876, 192.0, 0.0, 0.0, 0.0, 0.0, 0.0, 0.0, 0.0, 0.0, 0.0, 1.7161974135076232E9, 0.0, 2024-05-20 12:30:13.507
200.0, -3185.3247505813542, -187500.02235174447, -187500.02235174447, -149946.47651272733, -187500.02235174447, -169546.83298430836, -187500.02235174447, -187500.02235174447, 0.47600000000000003, 0.10400000000000001, 0.876, 192.0, 0.0, 0.0, 0.0, 0.0, 0.0, 0.0, 0.0, 0.0, 0.0, 1.716197413511654E9, 0.0, 2024-05-20 12:30:13.511
201.0, -3149.6737181751396, -187500.02235174447, -187500.02235174447, -149760.82292328155, -187500.02235174447, -169308.09400178122, -187500.02235174447, -187500.02235174447, 0.47600000000000003, 0.10400000000000001, 0.876, 192.0, 0.0, 0.0, 0.0, 0.0, 0.0, 0.0, 0.0, 0.0, 0.0, 1.716197413516848E9, 0.0, 2024-05-20 12:30:13.516
202.0, -3346.324365892931, -187500.02235174447, -187500.02235174447, -149570.6542814558, -187500.02235174447, -169053.97701906884, -187500.02235174447, -187500.02235174447, 0.47600000000000003, 0.10400000000000001, 0.874, 192.0, 14.0, 224.0, 3.0, 64.0, 27.0, 80.0, 0.0, 0.0, 0.0, 1.7161974135206904E9, 0.0, 2024-05-20 12:30:13.520
203.0, -3238.7677715739933, -187500.02235174447, -187500.02235174447, -149453.0841056209, -187500.02235174447, -168870.60330755753, -187500.02235174447, -187500.02235174447, 0.47600000000000003, 0.10400000000000001, 0.874, 192.0, 0.0, 0.0, 0.0, 0.0, 0.0, 0.0, 0.0, 0.0, 0.0, 1.7161974135247264E9, 0.0, 2024-05-20 12:30:13.524
204.0, -3189.526878538952, -187500.02235174447, -187500.02235174447, -149340.4983687995, -187500.02235174447, -168693.64454670483, -187500.02235174447, -187500.02235174447, 0.47600000000000003, 0.10400000000000001, 0.874, 192.0, 0.0, 0.0, 0.0, 0.0, 0.0, 0.0, 0.0, 0.0, 0.0, 1.7161974135277135E9, 0.0, 2024-05-20 12:30:13.527
205.0, -3308.169938107722, -187500.02235174447, -187500.02235174447, -149226.4150650996, -187500.02235174447, -168515.74701258505, -187500.02235174447, -187500.02235174447, 0.47600000000000003, 0.10400000000000001, 0.874, 192.0, 0.0, 0.0, 0.0, 0.0, 0.0, 0.0, 0.0, 0.0, 0.0, 1.7161974135327291E9, 0.0, 2024-05-20 12:30:13.532
206.0, -3222.9650882440915, -187500.02235174447, -187500.02235174447, -149053.77019092682, -187500.02235174447, -168279.73494288148, -187500.02235174447, -187500.02235174447, 0.47600000000000003, 0.10400000000000001, 0.874, 192.0, 0.0, 0.0, 0.0, 0.0, 0.0, 0.0, 0.0, 0.0, 0.0, 1.716197413536768E9, 0.0, 2024-05-20 12:30:13.536
207.0, -3132.5522819223743, -187500.02235174447, -187500.02235174447, -148893.50818318228, -187500.02235174447, -168055.3681320391, -187500.02235174447, -187500.02235174447, 0.47600000000000003, 0.10400000000000001, 0.874, 192.0, 0.0, 0.0, 0.0, 0.0, 0.0, 0.0, 0.0, 0.0, 0.0, 1.7161974135408142E9, 0.0, 2024-05-20 12:30:13.540
208.0, -3349.163037438755, -187500.02235174447, -187500.02235174447, -148885.99799704528, -187500.02235174447, -167988.64817484, -187500.02235174447, -187500.02235174447, 0.47600000000000003, 0.10400000000000001, 0.874, 192.0, 0.0, 0.0, 0.0, 0.0, 0.0, 0.0, 0.0, 0.0, 0.0, 1.7161974135437937E9, 0.0, 2024-05-20 12:30:13.543
209.0, -3404.5953636879167, -187500.02235174447, -187500.02235174447, -148777.63673992595, -187500.02235174447, -167828.1626496509, -187500.02235174447, -187500.02235174447, 0.47600000000000003, 0.10400000000000001, 0.874, 192.0, 0.0, 0.0, 0.0, 0.0, 0.0, 0.0, 0.0, 0.0, 0.0, 1.7161974135487835E9, 0.0, 2024-05-20 12:30:13.548
210.0, -3280.878458127792, -187500.02235174447, -187500.02235174447, -148553.09111512796, -187500.02235174447, -167547.49179452562, -187500.02235174447, -187500.02235174447, 0.47600000000000003, 0.10400000000000001, 0.874, 192.0, 0.0, 0.0, 0.0, 0.0, 0.0, 0.0, 0.0, 0.0, 0.0, 1.7161974135527968E9, 0.0, 2024-05-20 12:30:13.552
211.0, -3022.1346643131574, -187500.02235174447, -187500.02235174447, -148429.37420956782, -187500.02235174447, -167353.97039103156, -187500.02235174447, -187500.02235174447, 0.47600000000000003, 0.10400000000000001, 0.874, 192.0, 0.0, 0.0, 0.0, 0.0, 0.0, 0.0, 0.0, 0.0, 0.0, 1.7161974135558596E9, 0.0, 2024-05-20 12:30:13.555
212.0, -3250.1448095017445, -187500.02235174447, -187500.02235174447, -148327.33849612935, -187500.02235174447, -167188.63453729564, -187500.02235174447, -187500.02235174447, 0.47400000000000003, 0.10200000000000001, 0.87, 192.0, 14.0, 208.0, 3.0, 48.0, 27.0, 48.0, 0.0, 0.0, 0.0, 1.7161974135598736E9, 0.0, 2024-05-20 12:30:13.559
213.0, -3438.3688495598853, -187500.02235174447, -187500.02235174447, -148164.6177964947, -187500.02235174447, -166975.0189155363, -187500.02235174447, -187500.02235174447, 0.47400000000000003, 0.10200000000000001, 0.87, 192.0, 0.0, 0.0, 0.0, 0.0, 0.0, 0.0, 0.0, 0.0, 0.0, 1.7161974135638573E9, 0.0, 2024-05-20 12:30:13.563
214.0, -3336.9142814772467, -187500.02235174447, -187500.02235174447, -148043.09136189122, -187500.02235174447, -166793.05336392563, -187500.02235174447, -187500.02235174447, 0.47400000000000003, 0.10200000000000001, 0.87, 192.0, 0.0, 0.0, 0.0, 0.0, 0.0, 0.0, 0.0, 0.0, 0.0, 1.716197413567886E9, 0.0, 2024-05-20 12:30:13.567
215.0, -3357.8131625429587, -187500.02235174447, -187500.02235174447, -148039.53743452282, -187500.02235174447, -166729.3061887391, -187500.02235174447, -187500.02235174447, 0.47400000000000003, 0.10200000000000001, 0.87, 192.0, 0.0, 0.0, 0.0, 0.0, 0.0, 0.0, 0.0, 0.0, 0.0, 1.7161974135718744E9, 0.0, 2024-05-20 12:30:13.571
216.0, -3388.4797559356402, -187500.02235174447, -187500.02235174447, -147837.00827801327, -187500.02235174447, -166472.99873507008, -187500.02235174447, -187500.02235174447, 0.47400000000000003, 0.10200000000000001, 0.87, 192.0, 0.0, 0.0, 0.0, 0.0, 0.0, 0.0, 0.0, 0.0, 0.0, 1.7161974135759172E9, 0.0, 2024-05-20 12:30:13.575
217.0, -3243.2381204650546, -187500.02235174447, -187500.02235174447, -147574.21881845224, -187500.02235174447, -166149.39017884617, -187500.02235174447, -187500.02235174447, 0.47400000000000003, 0.10200000000000001, 0.87, 192.0, 0.0, 0.0, 0.0, 0.0, 0.0, 0.0, 0.0, 0.0, 0.0, 1.7161974135810037E9, 0.0, 2024-05-20 12:30:13.581
218.0, -3193.974875685558, -187500.02235174447, -187500.02235174447, -147515.14315785686, -187500.02235174447, -166019.50419181638, -187500.02235174447, -187500.02235174447, 0.47400000000000003, 0.10200000000000001, 0.87, 192.0, 0.0, 0.0, 0.0, 0.0, 0.0, 0.0, 0.0, 0.0, 0.0, 1.7161974135839088E9, 0.0, 2024-05-20 12:30:13.583
219.0, -3231.2799371814654, -187500.02235174447, -187500.02235174447, -147448.66906984677, -187500.02235174447, -165887.1595128965, -187500.02235174447, -187500.02235174447, 0.47400000000000003, 0.10200000000000001, 0.87, 192.0, 0.0, 0.0, 0.0, 0.0, 0.0, 0.0, 0.0, 0.0, 0.0, 1.7161974135879257E9, 0.0, 2024-05-20 12:30:13.587
220.0, -3185.034177903435, -187500.02235174447, -187500.02235174447, -147259.68507047714, -187500.02235174447, -165639.21161165377, -187500.02235174447, -187500.02235174447, 0.47400000000000003, 0.10200000000000001, 0.87, 192.0, 0.0, 0.0, 0.0, 0.0, 0.0, 0.0, 0.0, 0.0, 0.0, 1.7161974135919604E9, 0.0, 2024-05-20 12:30:13.591
221.0, -3331.5051593190624, -187500.02235174447, -187500.02235174447, -147154.20718839255, -187500.02235174447, -165469.27129856008, -187500.02235174447, -187500.02235174447, 0.47400000000000003, 0.10200000000000001, 0.87, 192.0, 14.0, 208.0, 3.0, 48.0, 27.0, 48.0, 0.0, 0.0, 0.0, 1.716197413595952E9, 0.0, 2024-05-20 12:30:13.595
222.0, -3437.899462926324, -187500.02235174447, -187500.02235174447, -147030.08795143224, -187500.02235174447, -165291.86550281828, -187500.02235174447, -187500.02235174447, 0.47400000000000003, 0.10200000000000001, 0.87, 192.0, 0.0, 0.0, 0.0, 0.0, 0.0, 0.0, 0.0, 0.0, 0.0, 1.7161974135999837E9, 0.0, 2024-05-20 12:30:13.599
223.0, -3259.5995974063394, -187500.02235174447, -187500.02235174447, -146761.66585226846, -187500.02235174447, -164971.5426530293, -187500.02235174447, -187500.02235174447, 0.47400000000000003, 0.10200000000000001, 0.87, 192.0, 0.0, 0.0, 0.0, 0.0, 0.0, 0.0, 0.0, 0.0, 0.0, 1.7161974136040208E9, 0.0, 2024-05-20 12:30:13.604
224.0, -3246.5014751555295, -187500.02235174447, -187500.02235174447, -146675.7680983267, -187500.02235174447, -164817.4497267544, -187500.02235174447, -187500.02235174447, 0.47400000000000003, 0.10200000000000001, 0.87, 192.0, 0.0, 0.0, 0.0, 0.0, 0.0, 0.0, 0.0, 0.0, 0.0, 1.7161974136090753E9, 0.0, 2024-05-20 12:30:13.609
225.0, -3319.32345859092, -187500.02235174447, -187500.02235174447, -146642.12872292148, -187500.02235174447, -164715.16814412692, -187500.02235174447, -187500.02235174447, 0.47400000000000003, 0.10200000000000001, 0.87, 192.0, 0.0, 0.0, 0.0, 0.0, 0.0, 0.0, 0.0, 0.0, 0.0, 1.716197413612046E9, 0.0, 2024-05-20 12:30:13.612
226.0, -3298.3351705473865, -187500.02235174447, -187500.02235174447, -146495.09894789447, -187500.02235174447, -164517.35520569744, -187500.02235174447, -187500.02235174447, 0.47400000000000003, 0.10200000000000001, 0.87, 192.0, 0.0, 0.0, 0.0, 0.0, 0.0, 0.0, 0.0, 0.0, 0.0, 1.7161974136160376E9, 0.0, 2024-05-20 12:30:13.616
227.0, -3437.8547594374136, -187500.02235174447, -187500.02235174447, -146262.84197125936, -187500.02235174447, -164229.4647371131, -187500.02235174447, -187500.02235174447, 0.47400000000000003, 0.10200000000000001, 0.87, 192.0, 0.0, 0.0, 0.0, 0.0, 0.0, 0.0, 0.0, 0.0, 0.0, 1.7161974136200633E9, 0.0, 2024-05-20 12:30:13.620
228.0, -3472.6564255543267, -187500.02235174447, -187500.02235174447, -146242.14425589374, -187500.02235174447, -164151.90418385318, -187500.02235174447, -187500.02235174447, 0.47400000000000003, 0.10200000000000001, 0.87, 192.0, 0.0, 0.0, 0.0, 0.0, 0.0, 0.0, 0.0, 0.0, 0.0, 1.7161974136241932E9, 0.0, 2024-05-20 12:30:13.624
229.0, -3438.8829396823576, -187500.02235174447, -187500.02235174447, -146148.244577437, -187500.02235174447, -164007.08723152726, -187500.02235174447, -187500.02235174447, 0.47400000000000003, 0.10200000000000001, 0.87, 192.0, 0.0, 0.0, 0.0, 0.0, 0.0, 0.0, 0.0, 0.0, 0.0, 1.7161974136280792E9, 0.0, 2024-05-20 12:30:13.628
230.0, -3271.088394056367, -187500.02235174447, -187500.02235174447, -145956.22074082147, -187500.02235174447, -163760.79335937422, -187500.02235174447, -187500.02235174447, 0.47400000000000003, 0.10200000000000001, 0.87, 192.0, 0.0, 0.0, 0.0, 0.0, 0.0, 0.0, 0.0, 0.0, 0.0, 1.7161974136320784E9, 0.0, 2024-05-20 12:30:13.632
231.0, -3286.2428767970655, -187500.02235174447, -187500.02235174447, -145760.57592160415, -187500.02235174447, -163500.88727484792, -187500.02235174447, -187500.02235174447, 0.47400000000000003, 0.10200000000000001, 0.874, 192.0, 14.0, 208.0, 3.0, 48.0, 27.0, 80.0, 0.0, 0.0, 0.0, 1.716197413638178E9, 0.0, 2024-05-20 12:30:13.638
232.0, -3403.4777764651512, -187500.02235174447, -187500.02235174447, -145662.3176529786, -187500.02235174447, -163338.52420312457, -187500.02235174447, -187500.02235174447, 0.47400000000000003, 0.10200000000000001, 0.874, 192.0, 0.0, 0.0, 0.0, 0.0, 0.0, 0.0, 0.0, 0.0, 0.0, 1.716197413641202E9, 0.0, 2024-05-20 12:30:13.641
233.0, -3408.8198433899697, -187500.02235174447, -187500.02235174447, -145484.57658107002, -187500.02235174447, -163109.1953050131, -187500.02235174447, -187500.02235174447, 0.47400000000000003, 0.10200000000000001, 0.874, 192.0, 0.0, 0.0, 0.0, 0.0, 0.0, 0.0, 0.0, 0.0, 0.0, 1.7161974136452284E9, 0.0, 2024-05-20 12:30:13.645
234.0, -3372.677072605738, -187500.02235174447, -187500.02235174447, -145349.84026549343, -187500.02235174447, -162916.07623291927, -187500.02235174447, -187500.02235174447, 0.47400000000000003, 0.10200000000000001, 0.874, 192.0, 0.0, 0.0, 0.0, 0.0, 0.0, 0.0, 0.0, 0.0, 0.0, 1.7161974136481547E9, 0.0, 2024-05-20 12:30:13.648
235.0, -3315.8589382003474, -187500.02235174447, -187500.02235174447, -145234.43820887068, -187500.02235174447, -162739.85507963362, -187500.02235174447, -187500.02235174447, 0.47400000000000003, 0.10200000000000001, 0.874, 192.0, 0.0, 0.0, 0.0, 0.0, 0.0, 0.0, 0.0, 0.0, 0.0, 1.7161974136521714E9, 0.0, 2024-05-20 12:30:13.652
236.0, -3401.0861398084335, -187500.02235174447, -187500.02235174447, -145093.86808799126, -187500.02235174447, -162538.35410336903, -187500.02235174447, -187500.02235174447, 0.47400000000000003, 0.10200000000000001, 0.874, 192.0, 0.0, 0.0, 0.0, 0.0, 0.0, 0.0, 0.0, 0.0, 0.0, 1.7161974136561806E9, 0.0, 2024-05-20 12:30:13.656
237.0, -3497.422158410807, -187500.02235174447, -187500.02235174447, -144958.23770263646, -187500.02235174447, -162345.90558360884, -187500.02235174447, -187500.02235174447, 0.47400000000000003, 0.10200000000000001, 0.874, 192.0, 0.0, 0.0, 0.0, 0.0, 0.0, 0.0, 0.0, 0.0, 0.0, 1.7161974136602108E9, 0.0, 2024-05-20 12:30:13.660
238.0, -3388.680921635738, -187500.02235174447, -187500.02235174447, -144876.60913188566, -187500.02235174447, -162206.16247727425, -187500.02235174447, -187500.02235174447, 0.47400000000000003, 0.10200000000000001, 0.874, 192.0, 0.0, 0.0, 0.0, 0.0, 0.0, 0.0, 0.0, 0.0, 0.0, 1.7161974136642263E9, 0.0, 2024-05-20 12:30:13.664
239.0, -3462.0616986825107, -187500.02235174447, -187500.02235174447, -144689.5026790503, -187500.02235174447, -161969.3904482592, -187500.02235174447, -187500.02235174447, 0.47400000000000003, 0.10200000000000001, 0.874, 192.0, 0.0, 0.0, 0.0, 0.0, 0.0, 0.0, 0.0, 0.0, 0.0, 1.7161974136673002E9, 0.0, 2024-05-20 12:30:13.667
240.0, -3359.4001363992857, -187500.02235174447, -187500.02235174447, -144525.97731661526, -187500.02235174447, -161745.5153757948, -187500.02235174447, -187500.02235174447, 0.47400000000000003, 0.10200000000000001, 0.874, 192.0, 0.0, 0.0, 0.0, 0.0, 0.0, 0.0, 0.0, 0.0, 0.0, 1.7161974136712542E9, 0.0, 2024-05-20 12:30:13.671
241.0, -3488.257943184131, -187500.02235174447, -187500.02235174447, -144496.18244125636, -187500.02235174447, -161653.31442991667, -187500.02235174447, -187500.02235174447, 0.48, 0.10200000000000001, 0.874, 192.0, 15.0, 0.0, 3.0, 48.0, 27.0, 80.0, 0.0, 0.0, 0.0, 1.716197413675258E9, 0.0, 2024-05-20 12:30:13.675
242.0, -3511.771978351114, -187500.02235174447, -187500.02235174447, -144332.05358172103, -187500.02235174447, -161442.33631400304, -187500.02235174447, -187500.02235174447, 0.48, 0.10200000000000001, 0.874, 192.0, 0.0, 0.0, 0.0, 0.0, 0.0, 0.0, 0.0, 0.0, 0.0, 1.716197413680296E9, 0.0, 2024-05-20 12:30:13.680
243.0, -3372.1629824832658, -187500.02235174447, -187500.02235174447, -144133.01129734653, -187500.02235174447, -161191.01329934757, -187500.02235174447, -187500.02235174447, 0.48, 0.10200000000000001, 0.874, 192.0, 0.0, 0.0, 0.0, 0.0, 0.0, 0.0, 0.0, 0.0, 0.0, 1.7161974136842892E9, 0.0, 2024-05-20 12:30:13.684
244.0, -3209.531689826452, -187500.02235174447, -187500.02235174447, -143996.2856765134, -187500.02235174447, -160989.71348878308, -187500.02235174447, -187500.02235174447, 0.48, 0.10200000000000001, 0.874, 192.0, 0.0, 0.0, 0.0, 0.0, 0.0, 0.0, 0.0, 0.0, 0.0, 1.7161974136883273E9, 0.0, 2024-05-20 12:30:13.688
245.0, -3211.9903817165355, -187500.02235174447, -187500.02235174447, -143889.0196548724, -187500.02235174447, -160819.6614169671, -187500.02235174447, -187500.02235174447, 0.48, 0.10200000000000001, 0.874, 192.0, 0.0, 0.0, 0.0, 0.0, 0.0, 0.0, 0.0, 0.0, 0.0, 1.716197413691346E9, 0.0, 2024-05-20 12:30:13.691
246.0, -3362.6858428342157, -187500.02235174447, -187500.02235174447, -143775.76336571734, -187500.02235174447, -160655.44315045397, -187500.02235174447, -187500.02235174447, 0.48, 0.10200000000000001, 0.874, 192.0, 0.0, 0.0, 0.0, 0.0, 0.0, 0.0, 0.0, 0.0, 0.0, 1.7161974136974509E9, 0.0, 2024-05-20 12:30:13.697
247.0, -3583.2081536302753, -187500.02235174447, -187500.02235174447, -143536.75616225676, -187500.02235174447, -160363.46231263428, -187500.02235174447, -187500.02235174447, 0.48, 0.10200000000000001, 0.874, 192.0, 0.0, 0.0, 0.0, 0.0, 0.0, 0.0, 0.0, 0.0, 0.0, 1.7161974137003553E9, 0.0, 2024-05-20 12:30:13.700
248.0, -3375.7616133405704, -187500.02235174447, -187500.02235174447, -143446.54452163514, -187500.02235174447, -160219.67354055328, -187500.02235174447, -187500.02235174447, 0.48, 0.10200000000000001, 0.874, 192.0, 0.0, 0.0, 0.0, 0.0, 0.0, 0.0, 0.0, 0.0, 0.0, 1.716197413705383E9, 0.0, 2024-05-20 12:30:13.705
249.0, -3145.940976851103, -187500.02235174447, -187500.02235174447, -143288.78590926956, -187500.02235174447, -160010.23769500706, -187500.02235174447, -187500.02235174447, 0.48, 0.10200000000000001, 0.874, 192.0, 0.0, 0.0, 0.0, 0.0, 0.0, 0.0, 0.0, 0.0, 0.0, 1.7161974137084608E9, 0.0, 2024-05-20 12:30:13.708
250.0, -3184.0283494029463, -187500.02235174447, -187500.02235174447, -143198.9542483037, -187500.02235174447, -159866.33716420378, -187500.02235174447, -187500.02235174447, 0.48, 0.10200000000000001, 0.874, 192.0, 0.0, 0.0, 0.0, 0.0, 0.0, 0.0, 0.0, 0.0, 0.0, 1.7161974137123804E9, 0.0, 2024-05-20 12:30:13.712
251.0, -3343.9550809806683, -187500.02235174447, -187500.02235174447, -143049.9575197646, -187500.02235174447, -159670.9382141755, -187500.02235174447, -187500.02235174447, 0.49, 0.098, 0.866, 192.0, 15.0, 80.0, 3.0, 16.0, 27.0, 16.0, 0.0, 0.0, 0.0, 1.7161974137174032E9, 0.0, 2024-05-20 12:30:13.717
252.0, -3559.470601018739, -187500.02235174447, -187500.02235174447, -142774.02523446386, -187500.02235174447, -159341.13822473746, -187500.02235174447, -187500.02235174447, 0.49, 0.098, 0.866, 192.0, 0.0, 0.0, 0.0, 0.0, 0.0, 0.0, 0.0, 0.0, 0.0, 1.7161974137214875E9, 0.0, 2024-05-20 12:30:13.721
253.0, -3609.113825453976, -187500.02235174447, -187500.02235174447, -142736.02726888983, -187500.02235174447, -159239.8848223549, -187500.02235174447, -187500.02235174447, 0.49, 0.098, 0.866, 192.0, 0.0, 0.0, 0.0, 0.0, 0.0, 0.0, 0.0, 0.0, 0.0, 1.716197413724509E9, 0.0, 2024-05-20 12:30:13.724
254.0, -3498.8079665670357, -187500.02235174447, -187500.02235174447, -142690.09443403417, -187500.02235174447, -159136.48565250466, -187500.02235174447, -187500.02235174447, 0.49, 0.098, 0.866, 192.0, 0.0, 0.0, 0.0, 0.0, 0.0, 0.0, 0.0, 0.0, 0.0, 1.7161974137275288E9, 0.0, 2024-05-20 12:30:13.727
255.0, -3518.8127778545354, -187500.02235174447, -187500.02235174447, -142496.26010611776, -187500.02235174447, -158896.98671066604, -187500.02235174447, -187500.02235174447, 0.49, 0.098, 0.866, 192.0, 0.0, 0.0, 0.0, 0.0, 0.0, 0.0, 0.0, 0.0, 0.0, 1.716197413731504E9, 0.0, 2024-05-20 12:30:13.731
0.0, -3428.064695365989, -187500.02235174447, -187500.02235174447, -142239.70678325972, -187500.02235174447, -158586.36451797062, -187500.02235174447, -187500.02235174447, 0.49, 0.098, 0.866, 192.0, 0.0, 0.0, 0.0, 0.0, 0.0, 0.0, 0.0, 0.0, 0.0, 1.7161974137354932E9, 0.0, 2024-05-20 12:30:13.735
1.0, -3360.6294823443277, -187500.02235174447, -187500.02235174447, -142049.9404728342, -187500.02235174447, -158335.4214829709, -187500.02235174447, -187500.02235174447, 0.49, 0.098, 0.866, 192.0, 0.0, 0.0, 0.0, 0.0, 0.0, 0.0, 0.0, 0.0, 0.0, 1.7161974137405005E9, 0.0, 2024-05-20 12:30:13.740
2.0, -3430.635145978349, -187500.02235174447, -187500.02235174447, -142072.24751380057, -187500.02235174447, -158301.1562587209, -187500.02235174447, -187500.02235174447, 0.49, 0.098, 0.866, 192.0, 0.0, 0.0, 0.0, 0.0, 0.0, 0.0, 0.0, 0.0, 0.0, 1.716197413744487E9, 0.0, 2024-05-20 12:30:13.744
3.0, -3412.9549161142013, -187500.02235174447, -187500.02235174447, -141922.82610211684, -187500.02235174447, -158100.63875921236, -187500.02235174447, -187500.02235174447, 0.49, 0.098, 0.866, 192.0, 0.0, 0.0, 0.0, 0.0, 0.0, 0.0, 0.0, 0.0, 0.0, 1.716197413747511E9, 0.0, 2024-05-20 12:30:13.747
4.0, -3455.6020445349272, -187500.02235174447, -187500.02235174447, -141805.85942338224, -187500.02235174447, -157934.49824267605, -187500.02235174447, -187500.02235174447, 0.486, 0.10200000000000001, 0.872, 192.0, 15.0, 48.0, 3.0, 48.0, 27.0, 64.0, 0.0, 0.0, 0.0, 1.7161974137515438E9, 0.0, 2024-05-20 12:30:13.751
5.0, -3381.6177703878607, -187500.02235174447, -187500.02235174447, -141551.3177575252, -187500.02235174447, -157632.1014919402, -187500.02235174447, -187500.02235174447, 0.486, 0.10200000000000001, 0.872, 192.0, 0.0, 0.0, 0.0, 0.0, 0.0, 0.0, 0.0, 0.0, 0.0, 1.7161974137555797E9, 0.0, 2024-05-20 12:30:13.755
6.0, -3297.5305077469957, -187500.02235174447, -187500.02235174447, -141332.78475198566, -187500.02235174447, -157353.91168044947, -187500.02235174447, -187500.02235174447, 0.486, 0.10200000000000001, 0.872, 192.0, 0.0, 0.0, 0.0, 0.0, 0.0, 0.0, 0.0, 0.0, 0.0, 1.7161974137595477E9, 0.0, 2024-05-20 12:30:13.759
7.0, -3421.0238958625673, -187500.02235174447, -187500.02235174447, -141320.93832742434, -187500.02235174447, -157284.30834821562, -187500.02235174447, -187500.02235174447, 0.486, 0.10200000000000001, 0.872, 192.0, 0.0, 0.0, 0.0, 0.0, 0.0, 0.0, 0.0, 0.0, 0.0, 1.7161974137636049E9, 0.0, 2024-05-20 12:30:13.763
8.0, -3290.266190799021, -187500.02235174447, -187500.02235174447, -141237.87924502842, -187500.02235174447, -157152.07542801803, -187500.02235174447, -187500.02235174447, 0.486, 0.10200000000000001, 0.872, 192.0, 0.0, 0.0, 0.0, 0.0, 0.0, 0.0, 0.0, 0.0, 0.0, 1.716197413768622E9, 0.0, 2024-05-20 12:30:13.768
9.0, -3299.8774409148027, -187500.02235174447, -187500.02235174447, -141081.797013497, -187500.02235174447, -156946.26056507358, -187500.02235174447, -187500.02235174447, 0.486, 0.10200000000000001, 0.872, 192.0, 0.0, 0.0, 0.0, 0.0, 0.0, 0.0, 0.0, 0.0, 0.0, 1.7161974137726443E9, 0.0, 2024-05-20 12:30:13.772
10.0, -3435.932509414257, -187500.02235174447, -187500.02235174447, -140868.27079871547, -187500.02235174447, -156678.55372173234, -187500.02235174447, -187500.02235174447, 0.486, 0.10200000000000001, 0.872, 192.0, 0.0, 0.0, 0.0, 0.0, 0.0, 0.0, 0.0, 0.0, 0.0, 1.7161974137756405E9, 0.0, 2024-05-20 12:30:13.775
11.0, -3447.242492108642, -187500.02235174447, -187500.02235174447, -140678.34802607872, -187500.02235174447, -156429.30941931123, -187500.02235174447, -187500.02235174447, 0.486, 0.10200000000000001, 0.872, 192.0, 0.0, 0.0, 0.0, 0.0, 0.0, 0.0, 0.0, 0.0, 0.0, 1.7161974137806876E9, 0.0, 2024-05-20 12:30:13.780
12.0, -3431.618622734383, -187500.02235174447, -187500.02235174447, -140662.47828751543, -187500.02235174447, -156359.81784579967, -187500.02235174447, -187500.02235174447, 0.486, 0.10200000000000001, 0.872, 192.0, 0.0, 0.0, 0.0, 0.0, 0.0, 0.0, 0.0, 0.0, 0.0, 1.716197413784782E9, 0.0, 2024-05-20 12:30:13.784
13.0, -3391.2737239925536, -187500.02235174447, -187500.02235174447, -140535.4756755204, -187500.02235174447, -156186.5247710377, -187500.02235174447, -187500.02235174447, 0.486, 0.10200000000000001, 0.872, 192.0, 0.0, 0.0, 0.0, 0.0, 0.0, 0.0, 0.0, 0.0, 0.0, 1.7161974137887268E9, 0.0, 2024-05-20 12:30:13.788
14.0, -3517.7175423762255, -187500.02235174447, -187500.02235174447, -140376.3759584875, -187500.02235174447, -155970.8527887884, -187500.02235174447, -187500.02235174447, 0.482, 0.11, 0.878, 192.0, 15.0, 16.0, 3.0, 112.0, 27.0, 112.0, 0.0, 0.0, 0.0, 1.7161974137937267E9, 0.0, 2024-05-20 12:30:13.793
15.0, -3574.155697125876, -187500.02235174447, -187500.02235174447, -140214.50462514217, -187500.02235174447, -155756.09722806184, -187500.02235174447, -187500.02235174447, 0.482, 0.11, 0.878, 192.0, 0.0, 0.0, 0.0, 0.0, 0.0, 0.0, 0.0, 0.0, 0.0, 1.7161974137977495E9, 0.0, 2024-05-20 12:30:13.797
16.0, -3613.2041946892973, -187500.02235174447, -187500.02235174447, -139983.63345666332, -187500.02235174447, -155476.5439601593, -187500.02235174447, -187500.02235174447, 0.482, 0.11, 0.878, 192.0, 0.0, 0.0, 0.0, 0.0, 0.0, 0.0, 0.0, 0.0, 0.0, 1.7161974138007417E9, 0.0, 2024-05-20 12:30:13.800
17.0, -3479.808983780025, -187500.02235174447, -187500.02235174447, -139978.5372589275, -187500.02235174447, -155425.2243548899, -187500.02235174447, -187500.02235174447, 0.482, 0.11, 0.878, 192.0, 0.0, 0.0, 0.0, 0.0, 0.0, 0.0, 0.0, 0.0, 0.0, 1.716197413804748E9, 0.0, 2024-05-20 12:30:13.804
18.0, -3434.479646024662, -187500.02235174447, -187500.02235174447, -139860.49769645903, -187500.02235174447, -155270.08089662564, -187500.02235174447, -187500.02235174447, 0.482, 0.11, 0.878, 192.0, 0.0, 0.0, 0.0, 0.0, 0.0, 0.0, 0.0, 0.0, 0.0, 1.716197413807736E9, 0.0, 2024-05-20 12:30:13.807
19.0, -3496.3045711880413, -187500.02235174447, -187500.02235174447, -139698.4699009025, -187500.02235174447, -155063.1484464584, -187500.02235174447, -187500.02235174447, 0.482, 0.11, 0.878, 192.0, 0.0, 0.0, 0.0, 0.0, 0.0, 0.0, 0.0, 0.0, 0.0, 1.7161974138117497E9, 0.0, 2024-05-20 12:30:13.811
20.0, -3517.829301098502, -187500.02235174447, -187500.02235174447, -139496.0301513708, -187500.02235174447, -154803.80115554348, -187500.02235174447, -187500.02235174447, 0.482, 0.11, 0.878, 192.0, 0.0, 0.0, 0.0, 0.0, 0.0, 0.0, 0.0, 0.0, 0.0, 1.7161974138157752E9, 0.0, 2024-05-20 12:30:13.815
21.0, -3498.36093167793, -187500.02235174447, -187500.02235174447, -139313.63991661547, -187500.02235174447, -154561.0835625033, -187500.02235174447, -187500.02235174447, 0.482, 0.11, 0.878, 192.0, 0.0, 0.0, 0.0, 0.0, 0.0, 0.0, 0.0, 0.0, 0.0, 1.7161974138198037E9, 0.0, 2024-05-20 12:30:13.819
22.0, -3403.4107212317854, -187500.02235174447, -187500.02235174447, -139263.52730554668, -187500.02235174447, -154461.21596827699, -187500.02235174447, -187500.02235174447, 0.482, 0.11, 0.878, 192.0, 0.0, 0.0, 0.0, 0.0, 0.0, 0.0, 0.0, 0.0, 0.0, 1.7161974138238056E9, 0.0, 2024-05-20 12:30:13.823
23.0, -3445.1190763853883, -187500.02235174447, -187500.02235174447, -139145.35363261148, -187500.02235174447, -154298.89760004255, -187500.02235174447, -187500.02235174447, 0.482, 0.11, 0.878, 192.0, 0.0, 0.0, 0.0, 0.0, 0.0, 0.0, 0.0, 0.0, 0.0, 1.7161974138278117E9, 0.0, 2024-05-20 12:30:13.827
24.0, -3428.5117302550952, -187500.02235174447, -187500.02235174447, -138989.51727026908, -187500.02235174447, -154093.23919930926, -187500.02235174447, -187500.02235174447, 0.484, 0.096, 0.874, 192.0, 15.0, 32.0, 3.0, 0.0, 27.0, 80.0, 0.0, 0.0, 0.0, 1.716197413830876E9, 0.0, 2024-05-20 12:30:13.830
25.0, -3533.833150128502, -187500.02235174447, -187500.02235174447, -138789.82678530537, -187500.02235174447, -153838.92105089678, -187500.02235174447, -187500.02235174447, 0.484, 0.096, 0.874, 192.0, 0.0, 0.0, 0.0, 0.0, 0.0, 0.0, 0.0, 0.0, 0.0, 1.7161974138358705E9, 0.0, 2024-05-20 12:30:13.835
26.0, -3575.407394815373, -187500.02235174447, -187500.02235174447, -138614.43264656456, -187500.02235174447, -153606.66407426167, -187500.02235174447, -187500.02235174447, 0.484, 0.096, 0.874, 192.0, 0.0, 0.0, 0.0, 0.0, 0.0, 0.0, 0.0, 0.0, 0.0, 1.7161974138398955E9, 0.0, 2024-05-20 12:30:13.839
27.0, -3358.550770109984, -187500.02235174447, -187500.02235174447, -138566.33169249675, -187500.02235174447, -153510.46216612603, -187500.02235174447, -187500.02235174447, 0.484, 0.096, 0.874, 192.0, 0.0, 0.0, 0.0, 0.0, 0.0, 0.0, 0.0, 0.0, 0.0, 1.7161974138438964E9, 0.0, 2024-05-20 12:30:13.843
28.0, -3218.0924079528345, -187500.02235174447, -187500.02235174447, -138375.93953322645, -187500.02235174447, -153274.36068944464, -187500.02235174447, -187500.02235174447, 0.484, 0.096, 0.874, 192.0, 0.0, 0.0, 0.0, 0.0, 0.0, 0.0, 0.0, 0.0, 0.0, 1.716197413847896E9, 0.0, 2024-05-20 12:30:13.847
29.0, -3348.604243827372, -187500.02235174447, -187500.02235174447, -138263.0408719827, -187500.02235174447, -153113.15990843295, -187500.02235174447, -187500.02235174447, 0.484, 0.096, 0.874, 192.0, 0.0, 0.0, 0.0, 0.0, 0.0, 0.0, 0.0, 0.0, 0.0, 1.7161974138539648E9, 0.0, 2024-05-20 12:30:13.853
30.0, -3491.49894613015, -187500.02235174447, -187500.02235174447, -138069.20654406626, -187500.02235174447, -152877.50546664066, -187500.02235174447, -187500.02235174447, 0.484, 0.096, 0.874, 192.0, 0.0, 0.0, 0.0, 0.0, 0.0, 0.0, 0.0, 0.0, 0.0, 1.7161974138569696E9, 0.0, 2024-05-20 12:30:13.856
31.0, -3700.6442189984587, -187500.02235174447, -187500.02235174447, -137913.07960904593, -187500.02235174447, -152669.3883740173, -187500.02235174447, -187500.02235174447, 0.484, 0.096, 0.874, 192.0, 0.0, 0.0, 0.0, 0.0, 0.0, 0.0, 0.0, 0.0, 0.0, 1.7161974138611436E9, 0.0, 2024-05-20 12:30:13.861
32.0, -3626.1011512400096, -187500.02235174447, -187500.02235174447, -137903.0436757855, -187500.02235174447, -152609.84332678837, -187500.02235174447, -187500.02235174447, 0.484, 0.096, 0.874, 192.0, 0.0, 0.0, 0.0, 0.0, 0.0, 0.0, 0.0, 0.0, 0.0, 1.7161974138639593E9, 0.0, 2024-05-20 12:30:13.863
33.0, -3457.703108513726, -187500.02235174447, -187500.02235174447, -137780.8243371039, -187500.02235174447, -152449.20133938806, -187500.02235174447, -187500.02235174447, 0.484, 0.096, 0.874, 192.0, 0.0, 0.0, 0.0, 0.0, 0.0, 0.0, 0.0, 0.0, 0.0, 1.7161974138709693E9, 0.0, 2024-05-20 12:30:13.870
34.0, -3512.9789725517003, -187500.02235174447, -187500.02235174447, -137580.8879829512, -187500.02235174447, -152200.4264236005, -187500.02235174447, -187500.02235174447, 0.486, 0.096, 0.87, 192.0, 15.0, 48.0, 3.0, 0.0, 27.0, 48.0, 0.0, 0.0, 0.0, 1.7161974138740828E9, 0.0, 2024-05-20 12:30:13.874
35.0, -3569.8194587015464, -187500.02235174447, -187500.02235174447, -137428.940824144, -187500.02235174447, -151997.11495603502, -187500.02235174447, -187500.02235174447, 0.486, 0.096, 0.87, 192.0, 0.0, 0.0, 0.0, 0.0, 0.0, 0.0, 0.0, 0.0, 0.0, 1.7161974138769913E9, 0.0, 2024-05-20 12:30:13.876
36.0, -3554.150885838376, -187500.02235174447, -187500.02235174447, -137277.01601708127, -187500.02235174447, -151796.01631117062, -187500.02235174447, -187500.02235174447, 0.486, 0.096, 0.87, 192.0, 0.0, 0.0, 0.0, 0.0, 0.0, 0.0, 0.0, 0.0, 0.0, 1.7161974138820074E9, 0.0, 2024-05-20 12:30:13.882
37.0, -3547.2665485461416, -187500.02235174447, -187500.02235174447, -137153.6790911769, -187500.02235174447, -151624.17609979823, -187500.02235174447, -187500.02235174447, 0.486, 0.096, 0.87, 192.0, 0.0, 0.0, 0.0, 0.0, 0.0, 0.0, 0.0, 0.0, 0.0, 1.716197413885024E9, 0.0, 2024-05-20 12:30:13.885
38.0, -3523.50664419015, -187500.02235174447, -187500.02235174447, -136953.36275736842, -187500.02235174447, -151379.91623639062, -187500.02235174447, -187500.02235174447, 0.486, 0.096, 0.87, 192.0, 0.0, 0.0, 0.0, 0.0, 0.0, 0.0, 0.0, 0.0, 0.0, 1.7161974138880258E9, 0.0, 2024-05-20 12:30:13.888
39.0, -3483.765242548614, -187500.02235174447, -187500.02235174447, -136911.83321617046, -187500.02235174447, -151291.06805218078, -187500.02235174447, -187500.02235174447, 0.486, 0.096, 0.87, 192.0, 0.0, 0.0, 0.0, 0.0, 0.0, 0.0, 0.0, 0.0, 0.0, 1.7161974138910632E9, 0.0, 2024-05-20 12:30:13.891
40.0, -3474.3998616218405, -187500.02235174447, -187500.02235174447, -136730.18058898218, -187500.02235174447, -151065.62835760455, -187500.02235174447, -187500.02235174447, 0.486, 0.096, 0.87, 192.0, 0.0, 0.0, 0.0, 0.0, 0.0, 0.0, 0.0, 0.0, 0.0, 1.716197413895066E9, 0.0, 2024-05-20 12:30:13.895
41.0, -3513.984801052189, -187500.02235174447, -187500.02235174447, -136562.09547067826, -187500.02235174447, -150849.19641604382, -187500.02235174447, -187500.02235174447, 0.486, 0.096, 0.87, 192.0, 0.0, 0.0, 0.0, 0.0, 0.0, 0.0, 0.0, 0.0, 0.0, 1.7161974139001634E9, 0.0, 2024-05-20 12:30:13.900
42.0, -3610.387874887929, -187500.02235174447, -187500.02235174447, -136478.87992607118, -187500.02235174447, -150715.53298420107, -187500.02235174447, -187500.02235174447, 0.486, 0.096, 0.87, 192.0, 0.0, 0.0, 0.0, 0.0, 0.0, 0.0, 0.0, 0.0, 0.0, 1.7161974139041057E9, 0.0, 2024-05-20 12:30:13.904
43.0, -3406.67407592226, -187500.02235174447, -187500.02235174447, -136329.30205217627, -187500.02235174447, -150527.39835112076, -187500.02235174447, -187500.02235174447, 0.484, 0.1, 0.874, 192.0, 15.0, 32.0, 3.0, 32.0, 27.0, 80.0, 0.0, 0.0, 0.0, 1.7161974139081504E9, 0.0, 2024-05-20 12:30:13.908
44.0, -3415.77123591557, -187500.02235174447, -187500.02235174447, -136098.2744214862, -187500.02235174447, -150251.62252803118, -187500.02235174447, -187500.02235174447, 0.484, 0.1, 0.874, 192.0, 0.0, 0.0, 0.0, 0.0, 0.0, 0.0, 0.0, 0.0, 0.0, 1.7161974139111419E9, 0.0, 2024-05-20 12:30:13.911
45.0, -3527.574661681016, -187500.02235174447, -187500.02235174447, -136106.9692500793, -187500.02235174447, -150214.92096363558, -187500.02235174447, -187500.02235174447, 0.484, 0.1, 0.874, 192.0, 0.0, 0.0, 0.0, 0.0, 0.0, 0.0, 0.0, 0.0, 0.0, 1.7161974139151516E9, 0.0, 2024-05-20 12:30:13.915
46.0, -3613.964154000778, -187500.02235174447, -187500.02235174447, -136000.97727787224, -187500.02235174447, -150073.90380786703, -187500.02235174447, -187500.02235174447, 0.484, 0.1, 0.874, 192.0, 0.0, 0.0, 0.0, 0.0, 0.0, 0.0, 0.0, 0.0, 0.0, 1.7161974139191785E9, 0.0, 2024-05-20 12:30:13.919
47.0, -3583.1410983969095, -187500.02235174447, -187500.02235174447, -135794.2012899162, -187500.02235174447, -149826.78292116916, -187500.02235174447, -187500.02235174447, 0.484, 0.1, 0.874, 192.0, 0.0, 0.0, 0.0, 0.0, 0.0, 0.0, 0.0, 0.0, 0.0, 1.7161974139231791E9, 0.0, 2024-05-20 12:30:13.923
48.0, -3481.217143680709, -187500.02235174447, -187500.02235174447, -135668.4280238662, -187500.02235174447, -149649.04184926057, -187500.02235174447, -187500.02235174447, 0.484, 0.1, 0.874, 192.0, 0.0, 0.0, 0.0, 0.0, 0.0, 0.0, 0.0, 0.0, 0.0, 1.7161974139283104E9, 0.0, 2024-05-20 12:30:13.928
49.0, -3544.696097933781, -187500.02235174447, -187500.02235174447, -135573.92484830917, -187500.02235174447, -149506.77299580254, -187500.02235174447, -187500.02235174447, 0.484, 0.1, 0.874, 192.0, 0.0, 0.0, 0.0, 0.0, 0.0, 0.0, 0.0, 0.0, 0.0, 1.71619741393219E9, 0.0, 2024-05-20 12:30:13.932
50.0, -3590.0030839446886, -187500.02235174447, -187500.02235174447, -135406.66674455008, -187500.02235174447, -149293.31383625435, -187500.02235174447, -187500.02235174447, 0.484, 0.1, 0.874, 192.0, 0.0, 0.0, 0.0, 0.0, 0.0, 0.0, 0.0, 0.0, 0.0, 1.716197413936242E9, 0.0, 2024-05-20 12:30:13.936
51.0, -3531.285051260597, -187500.02235174447, -187500.02235174447, -135232.0102133763, -187500.02235174447, -149070.0869643792, -187500.02235174447, -187500.02235174447, 0.484, 0.1, 0.874, 192.0, 0.0, 0.0, 0.0, 0.0, 0.0, 0.0, 0.0, 0.0, 0.0, 1.7161974139402227E9, 0.0, 2024-05-20 12:30:13.940
52.0, -3534.3248885065186, -187500.02235174447, -187500.02235174447, -135100.67136295693, -187500.02235174447, -148899.87843035202, -187500.02235174447, -187500.02235174447, 0.484, 0.1, 0.874, 192.0, 0.0, 0.0, 0.0, 0.0, 0.0, 0.0, 0.0, 0.0, 0.0, 1.716197413943313E9, 0.0, 2024-05-20 12:30:13.943
53.0, -3594.8534124914904, -187500.02235174447, -187500.02235174447, -135043.60735936253, -187500.02235174447, -148808.48214727428, -187500.02235174447, -187500.02235174447, 0.48, 0.1, 0.872, 192.0, 15.0, 0.0, 3.0, 32.0, 27.0, 64.0, 0.0, 0.0, 0.0, 1.7161974139492705E9, 0.0, 2024-05-20 12:30:13.949
54.0, -3595.0992816804987, -187500.02235174447, -187500.02235174447, -134874.04702592458, -187500.02235174447, -148602.24260118516, -187500.02235174447, -187500.02235174447, 0.48, 0.1, 0.872, 192.0, 0.0, 0.0, 0.0, 0.0, 0.0, 0.0, 0.0, 0.0, 0.0, 1.7161974139522982E9, 0.0, 2024-05-20 12:30:13.952
55.0, -3531.0391820715886, -187500.02235174447, -187500.02235174447, -134734.9968236681, -187500.02235174447, -148419.24886932957, -187500.02235174447, -187500.02235174447, 0.48, 0.1, 0.872, 192.0, 0.0, 0.0, 0.0, 0.0, 0.0, 0.0, 0.0, 0.0, 0.0, 1.716197413957306E9, 0.0, 2024-05-20 12:30:13.957
56.0, -3516.7564173646474, -187500.02235174447, -187500.02235174447, -134517.0449634844, -187500.02235174447, -148161.89088367115, -187500.02235174447, -187500.02235174447, 0.48, 0.1, 0.872, 192.0, 0.0, 0.0, 0.0, 0.0, 0.0, 0.0, 0.0, 0.0, 0.0, 1.716197413960413E9, 0.0, 2024-05-20 12:30:13.960
57.0, -3553.636795715904, -187500.02235174447, -187500.02235174447, -134456.985826133, -187500.02235174447, -148060.950405711, -187500.02235174447, -187500.02235174447, 0.48, 0.1, 0.872, 192.0, 0.0, 0.0, 0.0, 0.0, 0.0, 0.0, 0.0, 0.0, 0.0, 1.716197413964352E9, 0.0, 2024-05-20 12:30:13.964
58.0, -3508.2851062160858, -187500.02235174447, -187500.02235174447, -134376.40778737163, -187500.02235174447, -147937.90405248452, -187500.02235174447, -187500.02235174447, 0.48, 0.1, 0.872, 192.0, 0.0, 0.0, 0.0, 0.0, 0.0, 0.0, 0.0, 0.0, 0.0, 1.716197413967347E9, 0.0, 2024-05-20 12:30:13.967
59.0, -3511.1461295063655, -187500.02235174447, -187500.02235174447, -134264.51495462836, -187500.02235174447, -147785.06282389915, -187500.02235174447, -187500.02235174447, 0.48, 0.1, 0.872, 192.0, 0.0, 0.0, 0.0, 0.0, 0.0, 0.0, 0.0, 0.0, 0.0, 1.7161974139713426E9, 0.0, 2024-05-20 12:30:13.971
60.0, -3602.251839906197, -187500.02235174447, -187500.02235174447, -134028.21231224685, -187500.02235174447, -147509.8681461654, -187500.02235174447, -187500.02235174447, 0.48, 0.1, 0.872, 192.0, 0.0, 0.0, 0.0, 0.0, 0.0, 0.0, 0.0, 0.0, 0.0, 1.7161974139753852E9, 0.0, 2024-05-20 12:30:13.975
61.0, -3600.28488639413, -187500.02235174447, -187500.02235174447, -133836.90373145387, -187500.02235174447, -147271.8220677164, -187500.02235174447, -187500.02235174447, 0.48, 0.1, 0.872, 192.0, 0.0, 0.0, 0.0, 0.0, 0.0, 0.0, 0.0, 0.0, 0.0, 1.7161974139813964E9, 0.0, 2024-05-20 12:30:13.981
62.0, -3619.820311048068, -187500.02235174447, -187500.02235174447, -133828.96886217225, -187500.02235174447, -147223.13996829273, -187500.02235174447, -187500.02235174447, 0.48, 0.1, 0.872, 192.0, 0.0, 0.0, 0.0, 0.0, 0.0, 0.0, 0.0, 0.0, 0.0, 1.716197413984367E9, 0.0, 2024-05-20 12:30:13.984
63.0, -3613.539470856127, -187500.02235174447, -187500.02235174447, -133762.7182916067, -187500.02235174447, -147126.11104561223, -187500.02235174447, -187500.02235174447, 0.482, 0.10400000000000001, 0.87, 192.0, 15.0, 16.0, 3.0, 64.0, 27.0, 48.0, 0.0, 0.0, 0.0, 1.7161974139884825E9, 0.0, 2024-05-20 12:30:13.988
64.0, -3555.648452716882, -187500.02235174447, -187500.02235174447, -133529.85781787132, -187500.02235174447, -146859.83471391615, -187500.02235174447, -187500.02235174447, 0.482, 0.10400000000000001, 0.87, 192.0, 0.0, 0.0, 0.0, 0.0, 0.0, 0.0, 0.0, 0.0, 0.0, 1.716197413991496E9, 0.0, 2024-05-20 12:30:13.991
65.0, -3500.618457867916, -187500.02235174447, -187500.02235174447, -133340.06915570132, -187500.02235174447, -146624.18027212386, -187500.02235174447, -187500.02235174447, 0.482, 0.10400000000000001, 0.87, 192.0, 0.0, 0.0, 0.0, 0.0, 0.0, 0.0, 0.0, 0.0, 0.0, 1.716197413994488E9, 0.0, 2024-05-20 12:30:13.994
66.0, -3561.7281272087253, -187500.02235174447, -187500.02235174447, -133205.75752326936, -187500.02235174447, -146442.2594240021, -187500.02235174447, -187500.02235174447, 0.482, 0.10400000000000001, 0.87, 192.0, 0.0, 0.0, 0.0, 0.0, 0.0, 0.0, 0.0, 0.0, 0.0, 1.7161974139994748E9, 0.0, 2024-05-20 12:30:13.999
67.0, -3625.76587507318, -187500.02235174447, -187500.02235174447, -133112.9754320354, -187500.02235174447, -146314.04981780646, -187500.02235174447, -187500.02235174447, 0.482, 0.10400000000000001, 0.87, 192.0, 0.0, 0.0, 0.0, 0.0, 0.0, 0.0, 0.0, 0.0, 0.0, 1.7161974140034776E9, 0.0, 2024-05-20 12:30:14.003
68.0, -3593.5793630575376, -187500.02235174447, -187500.02235174447, -132974.37226466803, -187500.02235174447, -146149.2504059375, -187500.02235174447, -187500.02235174447, 0.482, 0.10400000000000001, 0.87, 192.0, 0.0, 0.0, 0.0, 0.0, 0.0, 0.0, 0.0, 0.0, 0.0, 1.716197414007498E9, 0.0, 2024-05-20 12:30:14.007
69.0, -3534.280185017608, -187500.02235174447, -187500.02235174447, -132807.71765800926, -187500.02235174447, -145943.86022613768, -187500.02235174447, -187500.02235174447, 0.482, 0.10400000000000001, 0.87, 192.0, 0.0, 0.0, 0.0, 0.0, 0.0, 0.0, 0.0, 0.0, 0.0, 1.7161974140115688E9, 0.0, 2024-05-20 12:30:14.011
70.0, -3574.80389771508, -187500.02235174447, -187500.02235174447, -132673.3613220884, -187500.02235174447, -145764.80040130622, -187500.02235174447, -187500.02235174447, 0.482, 0.10400000000000001, 0.87, 192.0, 0.0, 0.0, 0.0, 0.0, 0.0, 0.0, 0.0, 0.0, 0.0, 1.716197414016529E9, 0.0, 2024-05-20 12:30:14.016
71.0, -3587.544392054605, -187500.02235174447, -187500.02235174447, -132441.2608076645, -187500.02235174447, -145496.02067423114, -187500.02235174447, -187500.02235174447, 0.482, 0.10400000000000001, 0.87, 192.0, 0.0, 0.0, 0.0, 0.0, 0.0, 0.0, 0.0, 0.0, 0.0, 1.71619741401953E9, 0.0, 2024-05-20 12:30:14.019
72.0, -3582.8058222300797, -187500.02235174447, -187500.02235174447, -132440.27733090846, -187500.02235174447, -145460.74962148067, -187500.02235174447, -187500.02235174447, 0.482, 0.10400000000000001, 0.87, 192.0, 0.0, 0.0, 0.0, 0.0, 0.0, 0.0, 0.0, 0.0, 0.0, 1.7161974140245643E9, 0.0, 2024-05-20 12:30:14.024
73.0, -3602.922392239856, -187500.02235174447, -187500.02235174447, -132352.01029205445, -187500.02235174447, -145347.29216662553, -187500.02235174447, -187500.02235174447, 0.486, 0.1, 0.864, 192.0, 15.0, 48.0, 3.0, 32.0, 27.0, 0.0, 0.0, 0.0, 0.0, 1.7161974140285952E9, 0.0, 2024-05-20 12:30:14.028
74.0, -3592.7076450237805, -187500.02235174447, -187500.02235174447, -132189.69192382, -187500.02235174447, -145155.29068175444, -187500.02235174447, -187500.02235174447, 0.486, 0.1, 0.864, 192.0, 0.0, 0.0, 0.0, 0.0, 0.0, 0.0, 0.0, 0.0, 0.0, 1.7161974140326307E9, 0.0, 2024-05-20 12:30:14.032
75.0, -3611.304296410596, -187500.02235174447, -187500.02235174447, -132095.05463779625, -187500.02235174447, -145020.50966268894, -187500.02235174447, -187500.02235174447, 0.486, 0.1, 0.864, 192.0, 0.0, 0.0, 0.0, 0.0, 0.0, 0.0, 0.0, 0.0, 0.0, 1.7161974140366404E9, 0.0, 2024-05-20 12:30:14.036
76.0, -3592.171203156853, -187500.02235174447, -187500.02235174447, -131934.41265039597, -187500.02235174447, -144823.45668357096, -187500.02235174447, -187500.02235174447, 0.486, 0.1, 0.864, 192.0, 0.0, 0.0, 0.0, 0.0, 0.0, 0.0, 0.0, 0.0, 0.0, 1.7161974140406435E9, 0.0, 2024-05-20 12:30:14.040
77.0, -3587.477336821239, -187500.02235174447, -187500.02235174447, -131838.3672044715, -187500.02235174447, -144695.0459116752, -187500.02235174447, -187500.02235174447, 0.486, 0.1, 0.864, 192.0, 0.0, 0.0, 0.0, 0.0, 0.0, 0.0, 0.0, 0.0, 0.0, 1.7161974140437453E9, 0.0, 2024-05-20 12:30:14.043
78.0, -3588.7290345107363, -187500.02235174447, -187500.02235174447, -131683.24609795166, -187500.02235174447, -144499.602258158, -187500.02235174447, -187500.02235174447, 0.486, 0.1, 0.864, 192.0, 0.0, 0.0, 0.0, 0.0, 0.0, 0.0, 0.0, 0.0, 0.0, 1.7161974140466688E9, 0.0, 2024-05-20 12:30:14.046
79.0, -3573.0828133920213, -187500.02235174447, -187500.02235174447, -131552.95777952168, -187500.02235174447, -144326.75621828513, -187500.02235174447, -187500.02235174447, 0.486, 0.1, 0.864, 192.0, 0.0, 0.0, 0.0, 0.0, 0.0, 0.0, 0.0, 0.0, 0.0, 1.7161974140506797E9, 0.0, 2024-05-20 12:30:14.050
80.0, -3562.0410516310994, -187500.02235174447, -187500.02235174447, -131374.2555826015, -187500.02235174447, -144113.63233490376, -187500.02235174447, -187500.02235174447, 0.486, 0.1, 0.864, 192.0, 0.0, 0.0, 0.0, 0.0, 0.0, 0.0, 0.0, 0.0, 0.0, 1.7161974140546858E9, 0.0, 2024-05-20 12:30:14.054
81.0, -3608.890308009423, -187500.02235174447, -187500.02235174447, -131289.49776762698, -187500.02235174447, -143997.3362085028, -187500.02235174447, -187500.02235174447, 0.486, 0.1, 0.864, 192.0, 0.0, 0.0, 0.0, 0.0, 0.0, 0.0, 0.0, 0.0, 0.0, 1.7161974140597403E9, 0.0, 2024-05-20 12:30:14.059
82.0, -3604.4870143517273, -187500.02235174447, -187500.02235174447, -131130.64391978312, -187500.02235174447, -143800.14911891808, -187500.02235174447, -187500.02235174447, 0.48, 0.10400000000000001, 0.868, 192.0, 15.0, 0.0, 3.0, 64.0, 27.0, 32.0, 0.0, 0.0, 0.0, 1.7161974140636988E9, 0.0, 2024-05-20 12:30:14.063
83.0, -3546.0819060900103, -187500.02235174447, -187500.02235174447, -131030.41869764552, -187500.02235174447, -143658.61787302708, -187500.02235174447, -187500.02235174447, 0.48, 0.10400000000000001, 0.868, 192.0, 0.0, 0.0, 0.0, 0.0, 0.0, 0.0, 0.0, 0.0, 0.0, 1.716197414067716E9, 0.0, 2024-05-20 12:30:14.067
84.0, -3542.572682210527, -187500.02235174447, -187500.02235174447, -130987.05631340222, -187500.02235174447, -143588.47809892634, -187500.02235174447, -187500.02235174447, 0.48, 0.10400000000000001, 0.868, 192.0, 0.0, 0.0, 0.0, 0.0, 0.0, 0.0, 0.0, 0.0, 0.0, 1.7161974140707867E9, 0.0, 2024-05-20 12:30:14.070
85.0, -3579.9000954508897, -187500.02235174447, -187500.02235174447, -130755.29107514514, -187500.02235174447, -143333.0200115466, -187500.02235174447, -187500.02235174447, 0.48, 0.10400000000000001, 0.868, 192.0, 0.0, 0.0, 0.0, 0.0, 0.0, 0.0, 0.0, 0.0, 0.0, 1.716197414074764E9, 0.0, 2024-05-20 12:30:14.074
86.0, -3569.506534279172, -187500.02235174447, -187500.02235174447, -130472.58621127442, -187500.02235174447, -143014.2170803806, -187500.02235174447, -187500.02235174447, 0.48, 0.10400000000000001, 0.868, 192.0, 0.0, 0.0, 0.0, 0.0, 0.0, 0.0, 0.0, 0.0, 0.0, 1.7161974140787728E9, 0.0, 2024-05-20 12:30:14.078
87.0, -3571.2946738355968, -187500.02235174447, -187500.02235174447, -130489.52883357154, -187500.02235174447, -142993.87699292626, -187500.02235174447, -187500.02235174447, 0.48, 0.10400000000000001, 0.868, 192.0, 0.0, 0.0, 0.0, 0.0, 0.0, 0.0, 0.0, 0.0, 0.0, 1.7161974140827668E9, 0.0, 2024-05-20 12:30:14.082
88.0, -3553.636795715904, -187500.02235174447, -187500.02235174447, -130511.9029297713, -187500.02235174447, -142988.93725740162, -187500.02235174447, -187500.02235174447, 0.48, 0.10400000000000001, 0.868, 192.0, 0.0, 0.0, 0.0, 0.0, 0.0, 0.0, 0.0, 0.0, 0.0, 1.7161974140878096E9, 0.0, 2024-05-20 12:30:14.087
89.0, -3604.464662607272, -187500.02235174447, -187500.02235174447, -130344.04132891195, -187500.02235174447, -142796.9134207861, -187500.02235174447, -187500.02235174447, 0.48, 0.10400000000000001, 0.868, 192.0, 0.0, 0.0, 0.0, 0.0, 0.0, 0.0, 0.0, 0.0, 0.0, 1.7161974140918217E9, 0.0, 2024-05-20 12:30:14.091
90.0, -3633.857206566001, -187500.02235174447, -187500.02235174447, -130169.13892854918, -187500.02235174447, -142587.83520315113, -187500.02235174447, -187500.02235174447, 0.48, 0.10400000000000001, 0.868, 192.0, 0.0, 0.0, 0.0, 0.0, 0.0, 0.0, 0.0, 0.0, 0.0, 1.7161974140958376E9, 0.0, 2024-05-20 12:30:14.095
91.0, -3609.7173225542692, -187500.02235174447, -187500.02235174447, -129997.27636543232, -187500.02235174447, -142376.52181107068, -187500.02235174447, -187500.02235174447, 0.48, 0.10400000000000001, 0.868, 192.0, 0.0, 0.0, 0.0, 0.0, 0.0, 0.0, 0.0, 0.0, 0.0, 1.7161974140999267E9, 0.0, 2024-05-20 12:30:14.099
92.0, -3588.3937583439065, -187500.02235174447, -187500.02235174447, -129911.62448067957, -187500.02235174447, -142258.14697243535, -187500.02235174447, -187500.02235174447, 0.48, 0.108, 0.87, 192.0, 15.0, 0.0, 3.0, 96.0, 27.0, 48.0, 0.0, 0.0, 0.0, 1.7161974141028829E9, 0.0, 2024-05-20 12:30:14.102
93.0, -3580.771813484647, -187500.02235174447, -187500.02235174447, -129818.55181676768, -187500.02235174447, -142145.62829084735, -187500.02235174447, -187500.02235174447, 0.48, 0.108, 0.87, 192.0, 0.0, 0.0, 0.0, 0.0, 0.0, 0.0, 0.0, 0.0, 0.0, 1.716197414106887E9, 0.0, 2024-05-20 12:30:14.106
94.0, -3605.090511452021, -187500.02235174447, -187500.02235174447, -129590.1840436678, -187500.02235174447, -141890.70664533458, -187500.02235174447, -187500.02235174447, 0.48, 0.108, 0.87, 192.0, 0.0, 0.0, 0.0, 0.0, 0.0, 0.0, 0.0, 0.0, 0.0, 1.7161974141108856E9, 0.0, 2024-05-20 12:30:14.110
95.0, -3597.535621826127, -187500.02235174447, -187500.02235174447, -129539.57969422099, -187500.02235174447, -141807.78167340538, -187500.02235174447, -187500.02235174447, 0.48, 0.108, 0.87, 192.0, 0.0, 0.0, 0.0, 0.0, 0.0, 0.0, 0.0, 0.0, 0.0, 1.7161974141149013E9, 0.0, 2024-05-20 12:30:14.114
96.0, -3587.589095543515, -187500.02235174447, -187500.02235174447, -129382.62574465583, -187500.02235174447, -141621.7257525594, -187500.02235174447, -187500.02235174447, 0.48, 0.108, 0.87, 192.0, 0.0, 0.0, 0.0, 0.0, 0.0, 0.0, 0.0, 0.0, 0.0, 1.7161974141189277E9, 0.0, 2024-05-20 12:30:14.118
97.0, -3566.153772610876, -187500.02235174447, -187500.02235174447, -129250.21401050259, -187500.02235174447, -141451.71838423234, -187500.02235174447, -187500.02235174447, 0.48, 0.108, 0.87, 192.0, 0.0, 0.0, 0.0, 0.0, 0.0, 0.0, 0.0, 0.0, 0.0, 1.7161974141239483E9, 0.0, 2024-05-20 12:30:14.123
98.0, -3581.352958840485, -187500.02235174447, -187500.02235174447, -129212.57367283985, -187500.02235174447, -141388.44059567936, -187500.02235174447, -187500.02235174447, 0.48, 0.108, 0.87, 192.0, 0.0, 0.0, 0.0, 0.0, 0.0, 0.0, 0.0, 0.0, 0.0, 1.716197414126955E9, 0.0, 2024-05-20 12:30:14.126
99.0, -3607.6609620643812, -187500.02235174447, -187500.02235174447, -129096.72458132799, -187500.02235174447, -141255.06773651455, -187500.02235174447, -187500.02235174447, 0.48, 0.108, 0.87, 192.0, 0.0, 0.0, 0.0, 0.0, 0.0, 0.0, 0.0, 0.0, 0.0, 1.716197414130976E9, 0.0, 2024-05-20 12:30:14.130
100.0, -3610.387874887929, -187500.02235174447, -187500.02235174447, -128843.59107537165, -187500.02235174447, -140975.60387558985, -187500.02235174447, -187500.02235174447, 0.48, 0.108, 0.87, 192.0, 0.0, 0.0, 0.0, 0.0, 0.0, 0.0, 0.0, 0.0, 0.0, 1.7161974141349792E9, 0.0, 2024-05-20 12:30:14.134
101.0, -3595.076929936043, -187500.02235174447, -187500.02235174447, -128654.49531727974, -187500.02235174447, -140756.28855899436, -187500.02235174447, -187500.02235174447, 0.48, 0.108, 0.87, 192.0, 0.0, 0.0, 0.0, 0.0, 0.0, 0.0, 0.0, 0.0, 0.0, 1.7161974141389878E9, 0.0, 2024-05-20 12:30:14.138
102.0, -3571.4958395356944, -187500.02235174447, -187500.02235174447, -128675.99769544575, -187500.02235174447, -140753.94162582656, -187500.02235174447, -187500.02235174447, 0.482, 0.10400000000000001, 0.872, 192.0, 15.0, 16.0, 3.0, 64.0, 27.0, 64.0, 0.0, 0.0, 0.0, 1.7161974141429894E9, 0.0, 2024-05-20 12:30:14.142
103.0, -3590.3830636004286, -187500.02235174447, -187500.02235174447, -128541.12726940242, -187500.02235174447, -140598.77581581782, -187500.02235174447, -187500.02235174447, 0.482, 0.10400000000000001, 0.872, 192.0, 0.0, 0.0, 0.0, 0.0, 0.0, 0.0, 0.0, 0.0, 0.0, 1.716197414147087E9, 0.0, 2024-05-20 12:30:14.147
104.0, -3607.146871941909, -187500.02235174447, -187500.02235174447, -128441.10321296492, -187500.02235174447, -140465.49236363082, -187500.02235174447, -187500.02235174447, 0.482, 0.10400000000000001, 0.872, 192.0, 0.0, 0.0, 0.0, 0.0, 0.0, 0.0, 0.0, 0.0, 0.0, 1.7161974141520455E9, 0.0, 2024-05-20 12:30:14.152
105.0, -3620.401456403906, -187500.02235174447, -187500.02235174447, -128317.3863074048, -187500.02235174447, -140320.9659839828, -187500.02235174447, -187500.02235174447, 0.482, 0.10400000000000001, 0.872, 192.0, 0.0, 0.0, 0.0, 0.0, 0.0, 0.0, 0.0, 0.0, 0.0, 1.7161974141550686E9, 0.0, 2024-05-20 12:30:14.155
106.0, -3617.6745435803587, -187500.02235174447, -187500.02235174447, -128112.0408310939, -187500.02235174447, -140095.5709928955, -187500.02235174447, -187500.02235174447, 0.482, 0.10400000000000001, 0.872, 192.0, 0.0, 0.0, 0.0, 0.0, 0.0, 0.0, 0.0, 0.0, 0.0, 1.7161974141590953E9, 0.0, 2024-05-20 12:30:14.159
107.0, -3617.0933982245206, -187500.02235174447, -187500.02235174447, -127941.8993523001, -187500.02235174447, -139893.64533348626, -187500.02235174447, -187500.02235174447, 0.482, 0.10400000000000001, 0.872, 192.0, 0.0, 0.0, 0.0, 0.0, 0.0, 0.0, 0.0, 0.0, 0.0, 1.716197414163105E9, 0.0, 2024-05-20 12:30:14.163
108.0, -3602.0283224616437, -187500.02235174447, -187500.02235174447, -127869.50205200935, -187500.02235174447, -139792.70485552607, -187500.02235174447, -187500.02235174447, 0.482, 0.10400000000000001, 0.872, 192.0, 0.0, 0.0, 0.0, 0.0, 0.0, 0.0, 0.0, 0.0, 0.0, 1.716197414167086E9, 0.0, 2024-05-20 12:30:14.167
109.0, -3595.032226447133, -187500.02235174447, -187500.02235174447, -127855.01812160232, -187500.02235174447, -139758.66314872066, -187500.02235174447, -187500.02235174447, 0.482, 0.10400000000000001, 0.872, 192.0, 0.0, 0.0, 0.0, 0.0, 0.0, 0.0, 0.0, 0.0, 0.0, 1.7161974141711626E9, 0.0, 2024-05-20 12:30:14.171
110.0, -3597.110938681476, -187500.02235174447, -187500.02235174447, -127646.6775115344, -187500.02235174447, -139527.21083488595, -187500.02235174447, -187500.02235174447, 0.482, 0.10400000000000001, 0.872, 192.0, 0.0, 0.0, 0.0, 0.0, 0.0, 0.0, 0.0, 0.0, 0.0, 1.7161974141751232E9, 0.0, 2024-05-20 12:30:14.175
111.0, -3604.9116974963786, -187500.02235174447, -187500.02235174447, -127463.2814482786, -187500.02235174447, -139311.76237008124, -187500.02235174447, -187500.02235174447, 0.482, 0.10400000000000001, 0.872, 192.0, 0.0, 0.0, 0.0, 0.0, 0.0, 0.0, 0.0, 0.0, 0.0, 1.716197414179146E9, 0.0, 2024-05-20 12:30:14.179
112.0, -3602.698874795303, -187500.02235174447, -187500.02235174447, -127423.13771523688, -187500.02235174447, -139241.33202330256, -187500.02235174447, -187500.02235174447, 0.484, 0.1, 0.874, 192.0, 15.0, 32.0, 3.0, 32.0, 27.0, 80.0, 0.0, 0.0, 0.0, 1.7161974141841931E9, 0.0, 2024-05-20 12:30:14.184
113.0, -3601.4024736168953, -187500.02235174447, -187500.02235174447, -127355.07665337047, -187500.02235174447, -139156.82007751704, -187500.02235174447, -187500.02235174447, 0.484, 0.1, 0.874, 192.0, 0.0, 0.0, 0.0, 0.0, 0.0, 0.0, 0.0, 0.0, 0.0, 1.7161974141871593E9, 0.0, 2024-05-20 12:30:14.187
114.0, -3604.1293864404424, -187500.02235174447, -187500.02235174447, -127140.70107229962, -187500.02235174447, -138925.61363287136, -187500.02235174447, -187500.02235174447, 0.484, 0.1, 0.874, 192.0, 0.0, 0.0, 0.0, 0.0, 0.0, 0.0, 0.0, 0.0, 0.0, 1.7161974141914513E9, 0.0, 2024-05-20 12:30:14.191
115.0, -3593.8699357354567, -187500.02235174447, -187500.02235174447, -127016.35831789474, -187500.02235174447, -138773.06297696388, -187500.02235174447, -187500.02235174447, 0.484, 0.1, 0.874, 192.0, 0.0, 0.0, 0.0, 0.0, 0.0, 0.0, 0.0, 0.0, 0.0, 1.7161974141953297E9, 0.0, 2024-05-20 12:30:14.195
116.0, -3598.1391189264205, -187500.02235174447, -187500.02235174447, -126840.31597856474, -187500.02235174447, -138575.38414900115, -187500.02235174447, -187500.02235174447, 0.484, 0.1, 0.874, 192.0, 0.0, 0.0, 0.0, 0.0, 0.0, 0.0, 0.0, 0.0, 0.0, 1.7161974141992233E9, 0.0, 2024-05-20 12:30:14.199
117.0, -3601.246011405708, -187500.02235174447, -187500.02235174447, -126811.90691136205, -187500.02235174447, -138529.7418868234, -187500.02235174447, -187500.02235174447, 0.484, 0.1, 0.874, 192.0, 0.0, 0.0, 0.0, 0.0, 0.0, 0.0, 0.0, 0.0, 0.0, 1.7161974142032607E9, 0.0, 2024-05-20 12:30:14.203
118.0, -3598.675560793348, -187500.02235174447, -187500.02235174447, -126698.38240127354, -187500.02235174447, -138397.0172282478, -187500.02235174447, -187500.02235174447, 0.484, 0.1, 0.874, 192.0, 0.0, 0.0, 0.0, 0.0, 0.0, 0.0, 0.0, 0.0, 0.0, 1.7161974142062693E9, 0.0, 2024-05-20 12:30:14.206
119.0, -3594.9651712137666, -187500.02235174447, -187500.02235174447, -126647.86745880455, -187500.02235174447, -138331.03487861573, -187500.02235174447, -187500.02235174447, 0.484, 0.1, 0.874, 192.0, 0.0, 0.0, 0.0, 0.0, 0.0, 0.0, 0.0, 0.0, 0.0, 1.7161974142102492E9, 0.0, 2024-05-20 12:30:14.210
120.0, -3601.670694550359, -187500.02235174447, -187500.02235174447, -126457.25178208969, -187500.02235174447, -138120.593204569, -187500.02235174447, -187500.02235174447, 0.484, 0.1, 0.874, 192.0, 0.0, 0.0, 0.0, 0.0, 0.0, 0.0, 0.0, 0.0, 0.0, 1.7161974142142644E9, 0.0, 2024-05-20 12:30:14.214
121.0, -3612.4665871222724, -187500.02235174447, -187500.02235174447, -126270.63706763233, -187500.02235174447, -137905.27885023103, -187500.02235174447, -187500.02235174447, 0.484, 0.10400000000000001, 0.872, 192.0, 15.0, 32.0, 3.0, 64.0, 27.0, 64.0, 0.0, 0.0, 0.0, 1.7161974142192895E9, 0.0, 2024-05-20 12:30:14.219
122.0, -3605.246973663208, -187500.02235174447, -187500.02235174447, -126163.77337739151, -187500.02235174447, -137769.20142998712, -187500.02235174447, -187500.02235174447, 0.484, 0.10400000000000001, 0.872, 192.0, 0.0, 0.0, 0.0, 0.0, 0.0, 0.0, 0.0, 0.0, 0.0, 1.7161974142235496E9, 0.0, 2024-05-20 12:30:14.223
123.0, -3591.858278734479, -187500.02235174447, -187500.02235174447, -126072.53355652494, -187500.02235174447, -137651.60890240775, -187500.02235174447, -187500.02235174447, 0.484, 0.10400000000000001, 0.872, 192.0, 0.0, 0.0, 0.0, 0.0, 0.0, 0.0, 0.0, 0.0, 0.0, 1.7161974142273552E9, 0.0, 2024-05-20 12:30:14.227
124.0, -3598.317932882063, -187500.02235174447, -187500.02235174447, -126004.87482605873, -187500.02235174447, -137564.90648566562, -187500.02235174447, -187500.02235174447, 0.484, 0.10400000000000001, 0.872, 192.0, 0.0, 0.0, 0.0, 0.0, 0.0, 0.0, 0.0, 0.0, 0.0, 1.7161974142313616E9, 0.0, 2024-05-20 12:30:14.231
125.0, -3606.47631960825, -187500.02235174447, -187500.02235174447, -125877.60399313022, -187500.02235174447, -137424.60458571967, -187500.02235174447, -187500.02235174447, 0.484, 0.10400000000000001, 0.872, 192.0, 0.0, 0.0, 0.0, 0.0, 0.0, 0.0, 0.0, 0.0, 0.0, 1.7161974142343895E9, 0.0, 2024-05-20 12:30:14.234
126.0, -3619.6862005813364, -187500.02235174447, -187500.02235174447, -125645.68229266195, -187500.02235174447, -137176.50022226575, -187500.02235174447, -187500.02235174447, 0.484, 0.10400000000000001, 0.872, 192.0, 0.0, 0.0, 0.0, 0.0, 0.0, 0.0, 0.0, 0.0, 0.0, 1.716197414238356E9, 0.0, 2024-05-20 12:30:14.238
127.0, -3616.7804738021464, -187500.02235174447, -187500.02235174447, -125536.51637274223, -187500.02235174447, -137044.17789509034, -187500.02235174447, -187500.02235174447, 0.484, 0.10400000000000001, 0.872, 192.0, 0.0, 0.0, 0.0, 0.0, 0.0, 0.0, 0.0, 0.0, 0.0, 1.7161974142423992E9, 0.0, 2024-05-20 12:30:14.242
128.0, -3610.6560958213922, -187500.02235174447, -187500.02235174447, -125549.54743975967, -187500.02235174447, -137040.82513342204, -187500.02235174447, -187500.02235174447, 0.484, 0.10400000000000001, 0.872, 192.0, 0.0, 0.0, 0.0, 0.0, 0.0, 0.0, 0.0, 0.0, 0.0, 1.7161974142464068E9, 0.0, 2024-05-20 12:30:14.246
129.0, -3608.6444388204145, -187500.02235174447, -187500.02235174447, -125443.2648948747, -187500.02235174447, -136922.24912908665, -187500.02235174447, -187500.02235174447, 0.484, 0.10400000000000001, 0.872, 192.0, 0.0, 0.0, 0.0, 0.0, 0.0, 0.0, 0.0, 0.0, 0.0, 1.7161974142514155E9, 0.0, 2024-05-20 12:30:14.251
130.0, -3614.5229476121604, -187500.02235174447, -187500.02235174447, -125266.70846542221, -187500.02235174447, -136722.55864412294, -187500.02235174447, -187500.02235174447, 0.484, 0.10400000000000001, 0.872, 192.0, 0.0, 0.0, 0.0, 0.0, 0.0, 0.0, 0.0, 0.0, 0.0, 1.7161974142564874E9, 0.0, 2024-05-20 12:30:14.256
