%OpenBCI Raw EXG Data
%Number of channels = 8
%Sample Rate = 250 Hz
%Board = OpenBCI_GUI$BoardCytonSerial
Sample Index, EXG Channel 0, EXG Channel 1, EXG Channel 2, EXG Channel 3, EXG Channel 4, EXG Channel 5, EXG Channel 6, EXG Channel 7, Accel Channel 0, Accel Channel 1, Accel Channel 2, Other, Other, Other, Other, Other, Other, Other, Analog Channel 0, Analog Channel 1, Analog Channel 2, Timestamp, Other, Timestamp (Formatted)
157.0, 892.7510252894194, 0.0, 0.0, 0.0, 0.0, 0.0, 0.0, 0.0, 0.0, 0.0, 0.0, 192.0, 0.0, 0.0, 0.0, 0.0, 0.0, 0.0, 0.0, 0.0, 0.0, 1.715162368353469E9, 0.0, 2024-05-08 12:59:28.353
158.0, 1396.1346621673897, 0.0, 0.0, 0.0, 0.0, 0.0, 0.0, 0.0, 0.0, 0.0, 0.0, 192.0, 0.0, 0.0, 0.0, 0.0, 0.0, 0.0, 0.0, 0.0, 0.0, 1.7151623683537016E9, 0.0, 2024-05-08 12:59:28.353
159.0, 1950.2120554699966, 0.0, 0.0, 0.0, 0.0, 0.0, 0.0, 0.0, 0.0, 0.0, 0.0, 192.0, 0.0, 0.0, 0.0, 0.0, 0.0, 0.0, 0.0, 0.0, 0.0, 1.715162368353725E9, 0.0, 2024-05-08 12:59:28.353
160.0, 1821.1307312405982, 0.0, 0.0, 0.0, 0.0, 0.0, 0.0, 0.0, 0.0, 0.0, 0.0, 192.0, 0.0, 0.0, 0.0, 0.0, 0.0, 0.0, 0.0, 0.0, 0.0, 1.715162368353745E9, 0.0, 2024-05-08 12:59:28.353
161.0, 1149.3043481474338, 0.0, 0.0, 0.0, 0.0, 0.0, 0.0, 0.0, 0.0, 0.0, 0.0, 192.0, 0.0, 0.0, 0.0, 0.0, 0.0, 0.0, 0.0, 0.0, 0.0, 1.715162368353765E9, 0.0, 2024-05-08 12:59:28.353
162.0, 937.2309967554804, 0.0, 0.0, 0.0, 0.0, 0.0, 0.0, 0.0, 0.0, 0.0, 0.0, 192.0, 0.0, 0.0, 0.0, 0.0, 0.0, 0.0, 0.0, 0.0, 0.0, 1.7151623683538125E9, 0.0, 2024-05-08 12:59:28.353
163.0, 1449.8906075824032, 0.0, 0.0, 0.0, 0.0, 0.0, 0.0, 0.0, 0.0, 0.0, 0.0, 192.0, 0.0, 0.0, 0.0, 0.0, 0.0, 0.0, 0.0, 0.0, 0.0, 1.7151623683538313E9, 0.0, 2024-05-08 12:59:28.353
164.0, 1997.8212711598005, 0.0, 0.0, 0.0, 0.0, 0.0, 0.0, 0.0, 0.0, 0.0, 0.0, 192.0, 0.0, 0.0, 0.0, 0.0, 0.0, 0.0, 0.0, 0.0, 0.0, 1.7151623683538501E9, 0.0, 2024-05-08 12:59:28.353
165.0, 1882.5756767482374, 0.0, 0.0, 0.0, 0.0, 0.0, 0.0, 0.0, 0.006, -0.054, 0.992, 192.0, 0.0, 48.0, 254.0, 80.0, 31.0, 0.0, 0.0, 0.0, 0.0, 1.7151623683538692E9, 0.0, 2024-05-08 12:59:28.353
166.0, 1226.7531426850728, 0.0, 0.0, 0.0, 0.0, 0.0, 0.0, 0.0, 0.006, -0.054, 0.992, 192.0, 0.0, 0.0, 0.0, 0.0, 0.0, 0.0, 0.0, 0.0, 0.0, 1.7151623683538923E9, 0.0, 2024-05-08 12:59:28.353
167.0, 1003.727436510019, 0.0, 0.0, 0.0, 0.0, 0.0, 0.0, 0.0, 0.006, -0.054, 0.992, 192.0, 0.0, 0.0, 0.0, 0.0, 0.0, 0.0, 0.0, 0.0, 0.0, 1.7151623683539124E9, 0.0, 2024-05-08 12:59:28.353
168.0, 1501.5901925075284, 0.0, 0.0, 0.0, 0.0, 0.0, 0.0, 0.0, 0.006, -0.054, 0.992, 192.0, 0.0, 0.0, 0.0, 0.0, 0.0, 0.0, 0.0, 0.0, 0.0, 1.715162368353934E9, 0.0, 2024-05-08 12:59:28.353
169.0, 2031.2818326093952, 0.0, 0.0, 0.0, 0.0, 0.0, 0.0, 0.0, 0.006, -0.054, 0.992, 192.0, 0.0, 0.0, 0.0, 0.0, 0.0, 0.0, 0.0, 0.0, 0.0, 1.7151623683539538E9, 0.0, 2024-05-08 12:59:28.353
170.0, 1936.2869186743403, 0.0, 0.0, 0.0, 0.0, 0.0, 0.0, 0.0, 0.006, -0.054, 0.992, 192.0, 0.0, 0.0, 0.0, 0.0, 0.0, 0.0, 0.0, 0.0, 0.0, 1.715162368353973E9, 0.0, 2024-05-08 12:59:28.353
171.0, 1281.9843032341366, 0.0, 0.0, 0.0, 0.0, 0.0, 0.0, 0.0, 0.006, -0.054, 0.992, 192.0, 0.0, 0.0, 0.0, 0.0, 0.0, 0.0, 0.0, 0.0, 0.0, 1.715162368353992E9, 0.0, 2024-05-08 12:59:28.353
172.0, 1037.1209427262477, 0.0, 0.0, 0.0, 0.0, 0.0, 0.0, 0.0, 0.006, -0.054, 0.992, 192.0, 0.0, 0.0, 0.0, 0.0, 0.0, 0.0, 0.0, 0.0, 0.0, 1.715162368354104E9, 0.0, 2024-05-08 12:59:28.354
173.0, 1517.4152275818858, 0.0, 0.0, 0.0, 0.0, 0.0, 0.0, 0.0, 0.006, -0.054, 0.992, 192.0, 0.0, 0.0, 0.0, 0.0, 0.0, 0.0, 0.0, 0.0, 0.0, 1.715162368354123E9, 0.0, 2024-05-08 12:59:28.354
174.0, 2042.54711181487, 0.0, 0.0, 0.0, 0.0, 0.0, 0.0, 0.0, 0.006, -0.054, 0.992, 192.0, 0.0, 0.0, 0.0, 0.0, 0.0, 0.0, 0.0, 0.0, 0.0, 1.7151623683541443E9, 0.0, 2024-05-08 12:59:28.354
175.0, 1945.9205205345775, 0.0, 0.0, 0.0, 0.0, 0.0, 0.0, 0.0, 0.002, -0.048, 1.018, 192.0, 0.0, 16.0, 254.0, 128.0, 31.0, 208.0, 0.0, 0.0, 0.0, 1.7151623683541777E9, 0.0, 2024-05-08 12:59:28.354
176.0, 1304.581916878452, 0.0, 0.0, 0.0, 0.0, 0.0, 0.0, 0.0, 0.002, -0.048, 1.018, 192.0, 0.0, 0.0, 0.0, 0.0, 0.0, 0.0, 0.0, 0.0, 0.0, 1.7151623683542323E9, 0.0, 2024-05-08 12:59:28.354
177.0, 1034.9528235140829, 0.0, 0.0, 0.0, 0.0, 0.0, 0.0, 0.0, 0.002, -0.048, 1.018, 192.0, 0.0, 0.0, 0.0, 0.0, 0.0, 0.0, 0.0, 0.0, 0.0, 1.715162368354251E9, 0.0, 2024-05-08 12:59:28.354
178.0, 1519.1139601604891, 0.0, 0.0, 0.0, 0.0, 0.0, 0.0, 0.0, 0.002, -0.048, 1.018, 192.0, 0.0, 0.0, 0.0, 0.0, 0.0, 0.0, 0.0, 0.0, 0.0, 1.7151623683542712E9, 0.0, 2024-05-08 12:59:28.354
179.0, 2072.1631732181518, 0.0, 0.0, 0.0, 0.0, 0.0, 0.0, 0.0, 0.002, -0.048, 1.018, 192.0, 0.0, 0.0, 0.0, 0.0, 0.0, 0.0, 0.0, 0.0, 0.0, 1.7151623683543017E9, 0.0, 2024-05-08 12:59:28.354
180.0, 1989.349960011239, 0.0, 0.0, 0.0, 0.0, 0.0, 0.0, 0.0, 0.002, -0.048, 1.018, 192.0, 0.0, 0.0, 0.0, 0.0, 0.0, 0.0, 0.0, 0.0, 0.0, 1.715162368354322E9, 0.0, 2024-05-08 12:59:28.354
181.0, 1328.2300625121668, 0.0, 0.0, 0.0, 0.0, 0.0, 0.0, 0.0, 0.002, -0.048, 1.018, 192.0, 0.0, 0.0, 0.0, 0.0, 0.0, 0.0, 0.0, 0.0, 0.0, 1.715162368354345E9, 0.0, 2024-05-08 12:59:28.354
182.0, 1062.4901726830212, 0.0, 0.0, 0.0, 0.0, 0.0, 0.0, 0.0, 0.002, -0.048, 1.018, 192.0, 0.0, 0.0, 0.0, 0.0, 0.0, 0.0, 0.0, 0.0, 0.0, 1.715162368354365E9, 0.0, 2024-05-08 12:59:28.354
183.0, 1542.024498227179, 0.0, 0.0, 0.0, 0.0, 0.0, 0.0, 0.0, 0.002, -0.048, 1.018, 192.0, 0.0, 0.0, 0.0, 0.0, 0.0, 0.0, 0.0, 0.0, 0.0, 1.7151623683543856E9, 0.0, 2024-05-08 12:59:28.354
184.0, 2120.152368563696, 0.0, 0.0, 0.0, 0.0, 0.0, 0.0, 0.0, 0.002, -0.048, 1.018, 192.0, 0.0, 0.0, 0.0, 0.0, 0.0, 0.0, 0.0, 0.0, 0.0, 1.7151623683544037E9, 0.0, 2024-05-08 12:59:28.354
185.0, 2044.2681961379287, 0.0, 0.0, 0.0, 0.0, 0.0, 0.0, 0.0, 0.004, -0.05, 0.998, 192.0, 0.0, 32.0, 254.0, 112.0, 31.0, 48.0, 0.0, 0.0, 0.0, 1.7151623683544228E9, 0.0, 2024-05-08 12:59:28.354
186.0, 1387.3057231075434, 0.0, 0.0, 0.0, 0.0, 0.0, 0.0, 0.0, 0.004, -0.05, 0.998, 192.0, 0.0, 0.0, 0.0, 0.0, 0.0, 0.0, 0.0, 0.0, 0.0, 1.7151623683544445E9, 0.0, 2024-05-08 12:59:28.354
187.0, 1133.1663886507022, 0.0, 0.0, 0.0, 0.0, 0.0, 0.0, 0.0, 0.004, -0.05, 0.998, 192.0, 0.0, 0.0, 0.0, 0.0, 0.0, 0.0, 0.0, 0.0, 0.0, 1.7151623683544636E9, 0.0, 2024-05-08 12:59:28.354
188.0, 1623.3624963000414, 0.0, 0.0, 0.0, 0.0, 0.0, 0.0, 0.0, 0.004, -0.05, 0.998, 192.0, 0.0, 0.0, 0.0, 0.0, 0.0, 0.0, 0.0, 0.0, 0.0, 1.715162368354486E9, 0.0, 2024-05-08 12:59:28.354
189.0, 2187.766395541, 0.0, 0.0, 0.0, 0.0, 0.0, 0.0, 0.0, 0.004, -0.05, 0.998, 192.0, 0.0, 0.0, 0.0, 0.0, 0.0, 0.0, 0.0, 0.0, 0.0, 1.7151623683545923E9, 0.0, 2024-05-08 12:59:28.354
190.0, 2133.7645809369783, 0.0, 0.0, 0.0, 0.0, 0.0, 0.0, 0.0, 0.004, -0.05, 0.998, 192.0, 0.0, 0.0, 0.0, 0.0, 0.0, 0.0, 0.0, 0.0, 0.0, 1.7151623683546133E9, 0.0, 2024-05-08 12:59:28.354
191.0, 1476.288017784121, 0.0, 0.0, 0.0, 0.0, 0.0, 0.0, 0.0, 0.004, -0.05, 0.998, 192.0, 0.0, 0.0, 0.0, 0.0, 0.0, 0.0, 0.0, 0.0, 0.0, 1.7151623683546336E9, 0.0, 2024-05-08 12:59:28.354
192.0, 1215.62197394633, 0.0, 0.0, 0.0, 0.0, 0.0, 0.0, 0.0, 0.004, -0.05, 0.998, 192.0, 0.0, 0.0, 0.0, 0.0, 0.0, 0.0, 0.0, 0.0, 0.0, 1.7151623683546536E9, 0.0, 2024-05-08 12:59:28.354
193.0, 1704.2981629727083, 0.0, 0.0, 0.0, 0.0, 0.0, 0.0, 0.0, 0.004, -0.05, 0.998, 192.0, 0.0, 0.0, 0.0, 0.0, 0.0, 0.0, 0.0, 0.0, 0.0, 1.7151623683546736E9, 0.0, 2024-05-08 12:59:28.354
194.0, 2285.1976496216835, 0.0, 0.0, 0.0, 0.0, 0.0, 0.0, 0.0, 0.004, -0.05, 0.998, 192.0, 0.0, 0.0, 0.0, 0.0, 0.0, 0.0, 0.0, 0.0, 0.0, 1.715162368354694E9, 0.0, 2024-05-08 12:59:28.354
195.0, 2232.5592914294352, 0.0, 0.0, 0.0, 0.0, 0.0, 0.0, 0.0, 0.002, -0.05, 0.992, 192.0, 0.0, 16.0, 254.0, 112.0, 31.0, 0.0, 0.0, 0.0, 0.0, 1.715162368354717E9, 0.0, 2024-05-08 12:59:28.354
196.0, 1575.306245721131, 0.0, 0.0, 0.0, 0.0, 0.0, 0.0, 0.0, 0.002, -0.05, 0.992, 192.0, 0.0, 0.0, 0.0, 0.0, 0.0, 0.0, 0.0, 0.0, 0.0, 1.7151623683547368E9, 0.0, 2024-05-08 12:59:28.354
197.0, 1295.8647365408822, 0.0, 0.0, 0.0, 0.0, 0.0, 0.0, 0.0, 0.002, -0.05, 0.992, 192.0, 0.0, 0.0, 0.0, 0.0, 0.0, 0.0, 0.0, 0.0, 0.0, 1.7151623683547554E9, 0.0, 2024-05-08 12:59:28.354
198.0, 1768.045338159244, 0.0, 0.0, 0.0, 0.0, 0.0, 0.0, 0.0, 0.002, -0.05, 0.992, 192.0, 0.0, 0.0, 0.0, 0.0, 0.0, 0.0, 0.0, 0.0, 0.0, 1.7151623683547752E9, 0.0, 2024-05-08 12:59:28.354
199.0, 2326.011934997074, 0.0, 0.0, 0.0, 0.0, 0.0, 0.0, 0.0, 0.002, -0.05, 0.992, 192.0, 0.0, 0.0, 0.0, 0.0, 0.0, 0.0, 0.0, 0.0, 0.0, 1.715162368354795E9, 0.0, 2024-05-08 12:59:28.354
200.0, 2275.541696016991, 0.0, 0.0, 0.0, 0.0, 0.0, 0.0, 0.0, 0.002, -0.05, 0.992, 192.0, 0.0, 0.0, 0.0, 0.0, 0.0, 0.0, 0.0, 0.0, 0.0, 1.7151623683548176E9, 0.0, 2024-05-08 12:59:28.354
201.0, 1633.5548917716615, 0.0, 0.0, 0.0, 0.0, 0.0, 0.0, 0.0, 0.002, -0.05, 0.992, 192.0, 0.0, 0.0, 0.0, 0.0, 0.0, 0.0, 0.0, 0.0, 0.0, 1.7151623683548396E9, 0.0, 2024-05-08 12:59:28.354
202.0, 1337.0366498275578, 0.0, 0.0, 0.0, 0.0, 0.0, 0.0, 0.0, 0.002, -0.05, 0.992, 192.0, 0.0, 0.0, 0.0, 0.0, 0.0, 0.0, 0.0, 0.0, 0.0, 1.715162368354858E9, 0.0, 2024-05-08 12:59:28.354
203.0, 1793.302809393741, 0.0, 0.0, 0.0, 0.0, 0.0, 0.0, 0.0, 0.002, -0.05, 0.992, 192.0, 0.0, 0.0, 0.0, 0.0, 0.0, 0.0, 0.0, 0.0, 0.0, 1.715162368354878E9, 0.0, 2024-05-08 12:59:28.354
204.0, 2351.202350998205, 0.0, 0.0, 0.0, 0.0, 0.0, 0.0, 0.0, 0.002, -0.05, 0.992, 192.0, 0.0, 0.0, 0.0, 0.0, 0.0, 0.0, 0.0, 0.0, 0.0, 1.715162368354897E9, 0.0, 2024-05-08 12:59:28.354
205.0, 2322.882690773331, 0.0, 0.0, 0.0, 0.0, 0.0, 0.0, 0.0, 0.002, -0.046, 0.994, 192.0, 0.0, 16.0, 254.0, 144.0, 31.0, 16.0, 0.0, 0.0, 0.0, 1.7151623683549175E9, 0.0, 2024-05-08 12:59:28.354
206.0, 1662.209828163365, 0.0, 0.0, 0.0, 0.0, 0.0, 0.0, 0.0, 0.002, -0.046, 0.994, 192.0, 0.0, 0.0, 0.0, 0.0, 0.0, 0.0, 0.0, 0.0, 0.0, 1.7151623683549373E9, 0.0, 2024-05-08 12:59:28.354
207.0, 1342.5351789635633, 0.0, 0.0, 0.0, 0.0, 0.0, 0.0, 0.0, 0.002, -0.046, 0.994, 192.0, 0.0, 0.0, 0.0, 0.0, 0.0, 0.0, 0.0, 0.0, 0.0, 1.715162368354993E9, 0.0, 2024-05-08 12:59:28.354
208.0, 1771.755727738825, 0.0, 0.0, 0.0, 0.0, 0.0, 0.0, 0.0, 0.002, -0.046, 0.994, 192.0, 0.0, 0.0, 0.0, 0.0, 0.0, 0.0, 0.0, 0.0, 0.0, 1.7151623683550158E9, 0.0, 2024-05-08 12:59:28.355
209.0, 2323.3297256624373, 0.0, 0.0, 0.0, 0.0, 0.0, 0.0, 0.0, 0.002, -0.046, 0.994, 192.0, 0.0, 0.0, 0.0, 0.0, 0.0, 0.0, 0.0, 0.0, 0.0, 1.7151623683550344E9, 0.0, 2024-05-08 12:59:28.355
210.0, 2281.397853064281, 0.0, 0.0, 0.0, 0.0, 0.0, 0.0, 0.0, 0.002, -0.046, 0.994, 192.0, 0.0, 0.0, 0.0, 0.0, 0.0, 0.0, 0.0, 0.0, 0.0, 1.715162368355053E9, 0.0, 2024-05-08 12:59:28.355
211.0, 1619.5179962537286, 0.0, 0.0, 0.0, 0.0, 0.0, 0.0, 0.0, 0.002, -0.046, 0.994, 192.0, 0.0, 0.0, 0.0, 0.0, 0.0, 0.0, 0.0, 0.0, 0.0, 1.7151623683550715E9, 0.0, 2024-05-08 12:59:28.355
212.0, 1311.2203849816783, 0.0, 0.0, 0.0, 0.0, 0.0, 0.0, 0.0, 0.002, -0.046, 0.994, 192.0, 0.0, 0.0, 0.0, 0.0, 0.0, 0.0, 0.0, 0.0, 0.0, 1.7151623683550909E9, 0.0, 2024-05-08 12:59:28.355
213.0, 1738.4739802448728, 0.0, 0.0, 0.0, 0.0, 0.0, 0.0, 0.0, 0.002, -0.046, 0.994, 192.0, 0.0, 0.0, 0.0, 0.0, 0.0, 0.0, 0.0, 0.0, 0.0, 1.7151623683551097E9, 0.0, 2024-05-08 12:59:28.355
214.0, 2296.9323154607196, 0.0, 0.0, 0.0, 0.0, 0.0, 0.0, 0.0, 0.002, -0.046, 0.994, 192.0, 0.0, 0.0, 0.0, 0.0, 0.0, 0.0, 0.0, 0.0, 0.0, 1.715162368355131E9, 0.0, 2024-05-08 12:59:28.355
215.0, 2248.54078871498, 0.0, 0.0, 0.0, 0.0, 0.0, 0.0, 0.0, 0.004, -0.05, 0.996, 192.0, 0.0, 32.0, 254.0, 112.0, 31.0, 32.0, 0.0, 0.0, 0.0, 1.7151623683551629E9, 0.0, 2024-05-08 12:59:28.355
216.0, 1585.6103999150278, 0.0, 0.0, 0.0, 0.0, 0.0, 0.0, 0.0, 0.004, -0.05, 0.996, 192.0, 0.0, 0.0, 0.0, 0.0, 0.0, 0.0, 0.0, 0.0, 0.0, 1.7151623683551834E9, 0.0, 2024-05-08 12:59:28.355
217.0, 1276.5751810759523, 0.0, 0.0, 0.0, 0.0, 0.0, 0.0, 0.0, 0.004, -0.05, 0.996, 192.0, 0.0, 0.0, 0.0, 0.0, 0.0, 0.0, 0.0, 0.0, 0.0, 1.715162368355203E9, 0.0, 2024-05-08 12:59:28.355
218.0, 1707.4497589409066, 0.0, 0.0, 0.0, 0.0, 0.0, 0.0, 0.0, 0.004, -0.05, 0.996, 192.0, 0.0, 0.0, 0.0, 0.0, 0.0, 0.0, 0.0, 0.0, 0.0, 1.7151623683552232E9, 0.0, 2024-05-08 12:59:28.355
219.0, 2274.4017570497704, 0.0, 0.0, 0.0, 0.0, 0.0, 0.0, 0.0, 0.004, -0.05, 0.996, 192.0, 0.0, 0.0, 0.0, 0.0, 0.0, 0.0, 0.0, 0.0, 0.0, 1.7151623683552425E9, 0.0, 2024-05-08 12:59:28.355
220.0, 2257.4591347526475, 0.0, 0.0, 0.0, 0.0, 0.0, 0.0, 0.0, 0.004, -0.05, 0.996, 192.0, 0.0, 0.0, 0.0, 0.0, 0.0, 0.0, 0.0, 0.0, 0.0, 1.7151623683552625E9, 0.0, 2024-05-08 12:59:28.355
221.0, 1601.636600689483, 0.0, 0.0, 0.0, 0.0, 0.0, 0.0, 0.0, 0.004, -0.05, 0.996, 192.0, 0.0, 0.0, 0.0, 0.0, 0.0, 0.0, 0.0, 0.0, 0.0, 1.7151623683552897E9, 0.0, 2024-05-08 12:59:28.355
222.0, 1284.6888643132288, 0.0, 0.0, 0.0, 0.0, 0.0, 0.0, 0.0, 0.004, -0.05, 0.996, 192.0, 0.0, 0.0, 0.0, 0.0, 0.0, 0.0, 0.0, 0.0, 0.0, 1.7151623683553097E9, 0.0, 2024-05-08 12:59:28.355
223.0, 1708.7685118637696, 0.0, 0.0, 0.0, 0.0, 0.0, 0.0, 0.0, 0.004, -0.05, 0.996, 192.0, 0.0, 0.0, 0.0, 0.0, 0.0, 0.0, 0.0, 0.0, 0.0, 1.715162368355331E9, 0.0, 2024-05-08 12:59:28.355
224.0, 2278.0227396515297, 0.0, 0.0, 0.0, 0.0, 0.0, 0.0, 0.0, 0.004, -0.05, 0.996, 192.0, 0.0, 0.0, 0.0, 0.0, 0.0, 0.0, 0.0, 0.0, 0.0, 1.715162368355382E9, 0.0, 2024-05-08 12:59:28.355
225.0, 2284.1247658878287, 0.0, 0.0, 0.0, 0.0, 0.0, 0.0, 0.0, 0.004, -0.05, 0.996, 192.0, 0.0, 0.0, 254.0, 112.0, 31.0, 16.0, 0.0, 0.0, 0.0, 1.7151623683554037E9, 0.0, 2024-05-08 12:59:28.355
226.0, 1658.9017699839796, 0.0, 0.0, 0.0, 0.0, 0.0, 0.0, 0.0, 0.004, -0.05, 0.996, 192.0, 0.0, 0.0, 0.0, 0.0, 0.0, 0.0, 0.0, 0.0, 0.0, 1.7151623683554244E9, 0.0, 2024-05-08 12:59:28.355
227.0, 1328.744152634639, 0.0, 0.0, 0.0, 0.0, 0.0, 0.0, 0.0, 0.004, -0.05, 0.996, 192.0, 0.0, 0.0, 0.0, 0.0, 0.0, 0.0, 0.0, 0.0, 0.0, 1.7151623683554504E9, 0.0, 2024-05-08 12:59:28.355
228.0, 1757.3165008206965, 0.0, 0.0, 0.0, 0.0, 0.0, 0.0, 0.0, 0.004, -0.05, 0.996, 192.0, 0.0, 0.0, 0.0, 0.0, 0.0, 0.0, 0.0, 0.0, 0.0, 1.715162368355472E9, 0.0, 2024-05-08 12:59:28.355
229.0, 2329.0294204985407, 0.0, 0.0, 0.0, 0.0, 0.0, 0.0, 0.0, 0.004, -0.05, 0.996, 192.0, 0.0, 0.0, 0.0, 0.0, 0.0, 0.0, 0.0, 0.0, 0.0, 1.7151623683554933E9, 0.0, 2024-05-08 12:59:28.355
230.0, 2335.6455368573115, 0.0, 0.0, 0.0, 0.0, 0.0, 0.0, 0.0, 0.004, -0.05, 0.996, 192.0, 0.0, 0.0, 0.0, 0.0, 0.0, 0.0, 0.0, 0.0, 0.0, 1.7151623683555126E9, 0.0, 2024-05-08 12:59:28.355
231.0, 1713.5964886661159, 0.0, 0.0, 0.0, 0.0, 0.0, 0.0, 0.0, 0.004, -0.05, 0.996, 192.0, 0.0, 0.0, 0.0, 0.0, 0.0, 0.0, 0.0, 0.0, 0.0, 1.7151623683555307E9, 0.0, 2024-05-08 12:59:28.355
232.0, 1395.1735371558116, 0.0, 0.0, 0.0, 0.0, 0.0, 0.0, 0.0, 0.004, -0.05, 0.996, 192.0, 0.0, 0.0, 0.0, 0.0, 0.0, 0.0, 0.0, 0.0, 0.0, 1.7151623683555474E9, 0.0, 2024-05-08 12:59:28.355
233.0, 1826.2492807208635, 0.0, 0.0, 0.0, 0.0, 0.0, 0.0, 0.0, 0.004, -0.05, 0.996, 192.0, 0.0, 0.0, 0.0, 0.0, 0.0, 0.0, 0.0, 0.0, 0.0, 1.7151623683555639E9, 0.0, 2024-05-08 12:59:28.355
234.0, 2402.4101975453136, 0.0, 0.0, 0.0, 0.0, 0.0, 0.0, 0.0, 0.004, -0.05, 0.996, 192.0, 0.0, 0.0, 0.0, 0.0, 0.0, 0.0, 0.0, 0.0, 0.0, 1.7151623683555827E9, 0.0, 2024-05-08 12:59:28.355
235.0, 2390.13908983935, 0.0, 0.0, 0.0, 0.0, 0.0, 0.0, 0.0, 0.004, -0.044, 0.996, 192.0, 0.0, 32.0, 254.0, 160.0, 31.0, 32.0, 0.0, 0.0, 0.0, 1.7151623683556006E9, 0.0, 2024-05-08 12:59:28.355
236.0, 1743.5031227473169, 0.0, 0.0, 0.0, 0.0, 0.0, 0.0, 0.0, 0.004, -0.044, 0.996, 192.0, 0.0, 0.0, 0.0, 0.0, 0.0, 0.0, 0.0, 0.0, 0.0, 1.7151623683556194E9, 0.0, 2024-05-08 12:59:28.355
237.0, 1406.6846855502947, 0.0, 0.0, 0.0, 0.0, 0.0, 0.0, 0.0, 0.004, -0.044, 0.996, 192.0, 0.0, 0.0, 0.0, 0.0, 0.0, 0.0, 0.0, 0.0, 0.0, 1.7151623683556368E9, 0.0, 2024-05-08 12:59:28.355
238.0, 1798.980152485389, 0.0, 0.0, 0.0, 0.0, 0.0, 0.0, 0.0, 0.004, -0.044, 0.996, 192.0, 0.0, 0.0, 0.0, 0.0, 0.0, 0.0, 0.0, 0.0, 0.0, 1.7151623683556547E9, 0.0, 2024-05-08 12:59:28.355
239.0, 2374.7163861651884, 0.0, 0.0, 0.0, 0.0, 0.0, 0.0, 0.0, 0.004, -0.044, 0.996, 192.0, 0.0, 0.0, 0.0, 0.0, 0.0, 0.0, 0.0, 0.0, 0.0, 1.7151623683556738E9, 0.0, 2024-05-08 12:59:28.355
240.0, 2383.277104291571, 0.0, 0.0, 0.0, 0.0, 0.0, 0.0, 0.0, 0.004, -0.044, 0.996, 192.0, 0.0, 0.0, 0.0, 0.0, 0.0, 0.0, 0.0, 0.0, 0.0, 1.715162368355694E9, 0.0, 2024-05-08 12:59:28.355
241.0, 1743.9054541475123, 0.0, 0.0, 0.0, 0.0, 0.0, 0.0, 0.0, 0.004, -0.044, 0.996, 192.0, 0.0, 0.0, 0.0, 0.0, 0.0, 0.0, 0.0, 0.0, 0.0, 1.7151623683557115E9, 0.0, 2024-05-08 12:59:28.355
242.0, 1410.0150954741355, 0.0, 0.0, 0.0, 0.0, 0.0, 0.0, 0.0, 0.004, -0.044, 0.996, 192.0, 0.0, 0.0, 0.0, 0.0, 0.0, 0.0, 0.0, 0.0, 0.0, 1.7151623683557787E9, 0.0, 2024-05-08 12:59:28.355
243.0, 1817.5097486388386, 0.0, 0.0, 0.0, 0.0, 0.0, 0.0, 0.0, 0.004, -0.044, 0.996, 192.0, 0.0, 0.0, 0.0, 0.0, 0.0, 0.0, 0.0, 0.0, 0.0, 1.7151623683558204E9, 0.0, 2024-05-08 12:59:28.355
244.0, 2398.8786219213753, 0.0, 0.0, 0.0, 0.0, 0.0, 0.0, 0.0, 0.004, -0.044, 0.996, 192.0, 0.0, 0.0, 0.0, 0.0, 0.0, 0.0, 0.0, 0.0, 0.0, 1.7151623683558393E9, 0.0, 2024-05-08 12:59:28.355
245.0, 2409.2945348375483, 0.0, 0.0, 0.0, 0.0, 0.0, 0.0, 0.0, 0.002, -0.046, 0.99, 192.0, 0.0, 16.0, 254.0, 144.0, 30.0, 240.0, 0.0, 0.0, 0.0, 1.7151623683558576E9, 0.0, 2024-05-08 12:59:28.355
246.0, 1758.657605488015, 0.0, 0.0, 0.0, 0.0, 0.0, 0.0, 0.0, 0.002, -0.046, 0.99, 192.0, 0.0, 0.0, 0.0, 0.0, 0.0, 0.0, 0.0, 0.0, 0.0, 1.715162368355878E9, 0.0, 2024-05-08 12:59:28.355
247.0, 1396.8722697344149, 0.0, 0.0, 0.0, 0.0, 0.0, 0.0, 0.0, 0.002, -0.046, 0.99, 192.0, 0.0, 0.0, 0.0, 0.0, 0.0, 0.0, 0.0, 0.0, 0.0, 1.715162368355898E9, 0.0, 2024-05-08 12:59:28.355
248.0, 1803.0481699762547, 0.0, 0.0, 0.0, 0.0, 0.0, 0.0, 0.0, 0.002, -0.046, 0.99, 192.0, 0.0, 0.0, 0.0, 0.0, 0.0, 0.0, 0.0, 0.0, 0.0, 1.7151623683559172E9, 0.0, 2024-05-08 12:59:28.355
249.0, 2369.7095954071997, 0.0, 0.0, 0.0, 0.0, 0.0, 0.0, 0.0, 0.002, -0.046, 0.99, 192.0, 0.0, 0.0, 0.0, 0.0, 0.0, 0.0, 0.0, 0.0, 0.0, 1.715162368355936E9, 0.0, 2024-05-08 12:59:28.355
250.0, 2390.273200306082, 0.0, 0.0, 0.0, 0.0, 0.0, 0.0, 0.0, 0.002, -0.046, 0.99, 192.0, 0.0, 0.0, 0.0, 0.0, 0.0, 0.0, 0.0, 0.0, 0.0, 1.7151623683559544E9, 0.0, 2024-05-08 12:59:28.355
251.0, 1752.7790966962693, 0.0, 0.0, 0.0, 0.0, 0.0, 0.0, 0.0, 0.002, -0.046, 0.99, 192.0, 0.0, 0.0, 0.0, 0.0, 0.0, 0.0, 0.0, 0.0, 0.0, 1.7151623683559732E9, 0.0, 2024-05-08 12:59:28.355
252.0, 1368.7314234651833, 0.0, 0.0, 0.0, 0.0, 0.0, 0.0, 0.0, 0.002, -0.046, 0.99, 192.0, 0.0, 0.0, 0.0, 0.0, 0.0, 0.0, 0.0, 0.0, 0.0, 1.7151623683559918E9, 0.0, 2024-05-08 12:59:28.355
253.0, 1759.3728613105848, 0.0, 0.0, 0.0, 0.0, 0.0, 0.0, 0.0, 0.002, -0.046, 0.99, 192.0, 0.0, 0.0, 0.0, 0.0, 0.0, 0.0, 0.0, 0.0, 0.0, 1.7151623683560112E9, 0.0, 2024-05-08 12:59:28.356
254.0, 2342.663984616278, 0.0, 0.0, 0.0, 0.0, 0.0, 0.0, 0.0, 0.002, -0.046, 0.99, 192.0, 0.0, 0.0, 0.0, 0.0, 0.0, 0.0, 0.0, 0.0, 0.0, 1.715162368356032E9, 0.0, 2024-05-08 12:59:28.356
255.0, 2349.36950795287, 0.0, 0.0, 0.0, 0.0, 0.0, 0.0, 0.0, 0.002, -0.048, 0.986, 192.0, 0.0, 16.0, 254.0, 128.0, 30.0, 208.0, 0.0, 0.0, 0.0, 1.71516236835605E9, 0.0, 2024-05-08 12:59:28.356
0.0, 1698.4420059254178, 0.0, 0.0, 0.0, 0.0, 0.0, 0.0, 0.0, 0.002, -0.048, 0.986, 192.0, 0.0, 0.0, 0.0, 0.0, 0.0, 0.0, 0.0, 0.0, 0.0, 1.715162368356068E9, 0.0, 2024-05-08 12:59:28.356
1.0, 1319.490530430142, 0.0, 0.0, 0.0, 0.0, 0.0, 0.0, 0.0, 0.002, -0.048, 0.986, 192.0, 0.0, 0.0, 0.0, 0.0, 0.0, 0.0, 0.0, 0.0, 0.0, 1.7151623683560855E9, 0.0, 2024-05-08 12:59:28.356
2.0, 1676.6267033370382, 0.0, 0.0, 0.0, 0.0, 0.0, 0.0, 0.0, 0.002, -0.048, 0.986, 192.0, 0.0, 0.0, 0.0, 0.0, 0.0, 0.0, 0.0, 0.0, 0.0, 1.715162368356104E9, 0.0, 2024-05-08 12:59:28.356
3.0, 2256.386251018793, 0.0, 0.0, 0.0, 0.0, 0.0, 0.0, 0.0, 0.002, -0.048, 0.986, 192.0, 0.0, 0.0, 0.0, 0.0, 0.0, 0.0, 0.0, 0.0, 0.0, 1.715162368356136E9, 0.0, 2024-05-08 12:59:28.356
4.0, 2282.5154402870467, 0.0, 0.0, 0.0, 0.0, 0.0, 0.0, 0.0, 0.002, -0.048, 0.986, 192.0, 0.0, 0.0, 0.0, 0.0, 0.0, 0.0, 0.0, 0.0, 0.0, 1.7151623683561664E9, 0.0, 2024-05-08 12:59:28.356
5.0, 1632.9737464158234, 0.0, 0.0, 0.0, 0.0, 0.0, 0.0, 0.0, 0.002, -0.048, 0.986, 192.0, 0.0, 0.0, 0.0, 0.0, 0.0, 0.0, 0.0, 0.0, 0.0, 1.7151623683561847E9, 0.0, 2024-05-08 12:59:28.356
6.0, 1219.198253059179, 0.0, 0.0, 0.0, 0.0, 0.0, 0.0, 0.0, 0.002, -0.048, 0.986, 192.0, 0.0, 0.0, 0.0, 0.0, 0.0, 0.0, 0.0, 0.0, 0.0, 1.7151623683562036E9, 0.0, 2024-05-08 12:59:28.356
7.0, 1593.7464348967594, 0.0, 0.0, 0.0, 0.0, 0.0, 0.0, 0.0, 0.002, -0.048, 0.986, 192.0, 0.0, 0.0, 0.0, 0.0, 0.0, 0.0, 0.0, 0.0, 0.0, 1.7151623683562222E9, 0.0, 2024-05-08 12:59:28.356
8.0, 2178.8480495033323, 0.0, 0.0, 0.0, 0.0, 0.0, 0.0, 0.0, 0.002, -0.048, 0.986, 192.0, 0.0, 0.0, 0.0, 0.0, 0.0, 0.0, 0.0, 0.0, 0.0, 1.715162368356243E9, 0.0, 2024-05-08 12:59:28.356
9.0, 2196.2600584340166, 0.0, 0.0, 0.0, 0.0, 0.0, 0.0, 0.0, 0.002, -0.044, 0.988, 192.0, 0.0, 16.0, 254.0, 160.0, 30.0, 224.0, 0.0, 0.0, 0.0, 1.7151623683562622E9, 0.0, 2024-05-08 12:59:28.356
10.0, 1552.663928587905, 0.0, 0.0, 0.0, 0.0, 0.0, 0.0, 0.0, 0.002, -0.044, 0.988, 192.0, 0.0, 0.0, 0.0, 0.0, 0.0, 0.0, 0.0, 0.0, 0.0, 1.7151623683562818E9, 0.0, 2024-05-08 12:59:28.356
11.0, 1190.6997788786625, 0.0, 0.0, 0.0, 0.0, 0.0, 0.0, 0.0, 0.002, -0.044, 0.988, 192.0, 0.0, 0.0, 0.0, 0.0, 0.0, 0.0, 0.0, 0.0, 0.0, 1.7151623683563044E9, 0.0, 2024-05-08 12:59:28.356
12.0, 1559.503562391229, 0.0, 0.0, 0.0, 0.0, 0.0, 0.0, 0.0, 0.002, -0.044, 0.988, 192.0, 0.0, 0.0, 0.0, 0.0, 0.0, 0.0, 0.0, 0.0, 0.0, 1.7151623683563244E9, 0.0, 2024-05-08 12:59:28.356
13.0, 2142.99585139702, 0.0, 0.0, 0.0, 0.0, 0.0, 0.0, 0.0, 0.002, -0.044, 0.988, 192.0, 0.0, 0.0, 0.0, 0.0, 0.0, 0.0, 0.0, 0.0, 0.0, 1.7151623683563426E9, 0.0, 2024-05-08 12:59:28.356
14.0, 2194.3378084108604, 0.0, 0.0, 0.0, 0.0, 0.0, 0.0, 0.0, 0.002, -0.044, 0.988, 192.0, 0.0, 0.0, 0.0, 0.0, 0.0, 0.0, 0.0, 0.0, 0.0, 1.7151623683563607E9, 0.0, 2024-05-08 12:59:28.356
15.0, 1561.9846060257682, 0.0, 0.0, 0.0, 0.0, 0.0, 0.0, 0.0, 0.002, -0.044, 0.988, 192.0, 0.0, 0.0, 0.0, 0.0, 0.0, 0.0, 0.0, 0.0, 0.0, 1.7151623683563793E9, 0.0, 2024-05-08 12:59:28.356
16.0, 1155.5181331060091, 0.0, 0.0, 0.0, 0.0, 0.0, 0.0, 0.0, 0.002, -0.044, 0.988, 192.0, 0.0, 0.0, 0.0, 0.0, 0.0, 0.0, 0.0, 0.0, 0.0, 1.715162368356398E9, 0.0, 2024-05-08 12:59:28.356
17.0, 1529.9322044768578, 0.0, 0.0, 0.0, 0.0, 0.0, 0.0, 0.0, 0.002, -0.044, 0.988, 192.0, 0.0, 0.0, 0.0, 0.0, 0.0, 0.0, 0.0, 0.0, 0.0, 1.715162368356418E9, 0.0, 2024-05-08 12:59:28.356
18.0, 2131.7752756804557, 0.0, 0.0, 0.0, 0.0, 0.0, 0.0, 0.0, 0.002, -0.044, 0.988, 192.0, 0.0, 0.0, 0.0, 0.0, 0.0, 0.0, 0.0, 0.0, 0.0, 1.7151623683564355E9, 0.0, 2024-05-08 12:59:28.356
19.0, 2161.927778950665, 0.0, 0.0, 0.0, 0.0, 0.0, 0.0, 0.0, 0.008, -0.046, 0.992, 192.0, 0.0, 64.0, 254.0, 144.0, 31.0, 0.0, 0.0, 0.0, 0.0, 1.715162368356454E9, 0.0, 2024-05-08 12:59:28.356
20.0, 1531.4521230998187, 0.0, 0.0, 0.0, 0.0, 0.0, 0.0, 0.0, 0.008, -0.046, 0.992, 192.0, 0.0, 0.0, 0.0, 0.0, 0.0, 0.0, 0.0, 0.0, 0.0, 1.7151623683564725E9, 0.0, 2024-05-08 12:59:28.356
21.0, 1138.4190485976992, 0.0, 0.0, 0.0, 0.0, 0.0, 0.0, 0.0, 0.008, -0.046, 0.992, 192.0, 0.0, 0.0, 0.0, 0.0, 0.0, 0.0, 0.0, 0.0, 0.0, 1.7151623683565211E9, 0.0, 2024-05-08 12:59:28.356
22.0, 1490.2131545797772, 0.0, 0.0, 0.0, 0.0, 0.0, 0.0, 0.0, 0.008, -0.046, 0.992, 192.0, 0.0, 0.0, 0.0, 0.0, 0.0, 0.0, 0.0, 0.0, 0.0, 1.7151623683565402E9, 0.0, 2024-05-08 12:59:28.356
0.0, 0.0, 0.0, 0.0, 0.0, 0.0, 0.0, 0.0, 0.0, 0.008, -0.046, 0.992, 192.0, 0.0, 0.0, 0.0, 0.0, 0.0, 0.0, 0.0, 0.0, 0.0, 1.7151623684517395E9, 0.0, 2024-05-08 12:59:28.451
1.0, -32976.91440307074, 0.0, 0.0, 0.0, 0.0, 0.0, 0.0, 0.0, 0.008, -0.048, 0.986, 192.0, 0.0, 64.0, 254.0, 128.0, 30.0, 208.0, 0.0, 0.0, 0.0, 1.7151623684677875E9, 0.0, 2024-05-08 12:59:28.467
2.0, -31912.83725653139, 0.0, 0.0, 0.0, 0.0, 0.0, 0.0, 0.0, 0.008, -0.048, 0.986, 192.0, 0.0, 0.0, 0.0, 0.0, 0.0, 0.0, 0.0, 0.0, 0.0, 1.7151623689459925E9, 0.0, 2024-05-08 12:59:28.945
3.0, -32449.23441996985, 0.0, 0.0, 0.0, 0.0, 0.0, 0.0, 0.0, 0.008, -0.048, 0.986, 192.0, 0.0, 0.0, 0.0, 0.0, 0.0, 0.0, 0.0, 0.0, 0.0, 1.715162368946061E9, 0.0, 2024-05-08 12:59:28.946
4.0, -33251.21501102627, 0.0, 0.0, 0.0, 0.0, 0.0, 0.0, 0.0, 0.008, -0.048, 0.986, 192.0, 0.0, 0.0, 0.0, 0.0, 0.0, 0.0, 0.0, 0.0, 0.0, 1.7151623689460924E9, 0.0, 2024-05-08 12:59:28.946
5.0, -32794.85944448226, 0.0, 0.0, 0.0, 0.0, 0.0, 0.0, 0.0, 0.008, -0.048, 0.986, 192.0, 0.0, 0.0, 0.0, 0.0, 0.0, 0.0, 0.0, 0.0, 0.0, 1.7151623689461217E9, 0.0, 2024-05-08 12:59:28.946
6.0, -31071.696409189277, 0.0, 0.0, 0.0, 0.0, 0.0, 0.0, 0.0, 0.008, -0.048, 0.986, 192.0, 0.0, 0.0, 0.0, 0.0, 0.0, 0.0, 0.0, 0.0, 0.0, 1.7151623689461513E9, 0.0, 2024-05-08 12:59:28.946
7.0, -29747.333198467877, 0.0, 0.0, 0.0, 0.0, 0.0, 0.0, 0.0, 0.008, -0.048, 0.986, 192.0, 0.0, 0.0, 0.0, 0.0, 0.0, 0.0, 0.0, 0.0, 0.0, 1.715162368946187E9, 0.0, 2024-05-08 12:59:28.946
8.0, -30186.522625270205, 0.0, 0.0, 0.0, 0.0, 0.0, 0.0, 0.0, 0.008, -0.048, 0.986, 192.0, 0.0, 64.0, 254.0, 128.0, 30.0, 208.0, 0.0, 0.0, 0.0, 1.7151623689462075E9, 0.0, 2024-05-08 12:59:28.946
9.0, -30974.42161731978, 0.0, 0.0, 0.0, 0.0, 0.0, 0.0, 0.0, 0.008, -0.048, 0.986, 192.0, 0.0, 0.0, 0.0, 0.0, 0.0, 0.0, 0.0, 0.0, 0.0, 1.7151623689462287E9, 0.0, 2024-05-08 12:59:28.946
10.0, -30515.31678620777, 0.0, 0.0, 0.0, 0.0, 0.0, 0.0, 0.0, 0.008, -0.048, 0.986, 192.0, 0.0, 0.0, 0.0, 0.0, 0.0, 0.0, 0.0, 0.0, 0.0, 1.7151623689462485E9, 0.0, 2024-05-08 12:59:28.946
11.0, -28786.476407823135, 0.0, 0.0, 0.0, 0.0, 0.0, 0.0, 0.0, 0.008, -0.048, 0.986, 192.0, 0.0, 0.0, 0.0, 0.0, 0.0, 0.0, 0.0, 0.0, 0.0, 1.7151623689462729E9, 0.0, 2024-05-08 12:59:28.946
12.0, -27457.978124377507, 0.0, 0.0, 0.0, 0.0, 0.0, 0.0, 0.0, 0.008, -0.048, 0.986, 192.0, 0.0, 0.0, 0.0, 0.0, 0.0, 0.0, 0.0, 0.0, 0.0, 1.7151623689462922E9, 0.0, 2024-05-08 12:59:28.946
13.0, -27899.872112258927, 0.0, 0.0, 0.0, 0.0, 0.0, 0.0, 0.0, 0.008, -0.048, 0.986, 192.0, 0.0, 0.0, 0.0, 0.0, 0.0, 0.0, 0.0, 0.0, 0.0, 1.7151623689463108E9, 0.0, 2024-05-08 12:59:28.946
14.0, -28639.826612451867, 0.0, 0.0, 0.0, 0.0, 0.0, 0.0, 0.0, 0.008, -0.048, 0.986, 192.0, 0.0, 0.0, 0.0, 0.0, 0.0, 0.0, 0.0, 0.0, 0.0, 1.7151623689463315E9, 0.0, 2024-05-08 12:59:28.946
15.0, -28076.182672522387, 0.0, 0.0, 0.0, 0.0, 0.0, 0.0, 0.0, 0.008, -0.048, 0.986, 192.0, 0.0, 0.0, 0.0, 0.0, 0.0, 0.0, 0.0, 0.0, 0.0, 1.71516236894635E9, 0.0, 2024-05-08 12:59:28.946
16.0, -26242.266743453354, 0.0, 0.0, 0.0, 0.0, 0.0, 0.0, 0.0, 0.008, -0.048, 0.986, 192.0, 0.0, 0.0, 0.0, 0.0, 0.0, 0.0, 0.0, 0.0, 0.0, 1.7151623689464264E9, 0.0, 2024-05-08 12:59:28.946
17.0, -24811.755098313704, 0.0, 0.0, 0.0, 0.0, 0.0, 0.0, 0.0, 0.008, -0.048, 0.986, 192.0, 0.0, 0.0, 0.0, 0.0, 0.0, 0.0, 0.0, 0.0, 0.0, 1.7151623689464471E9, 0.0, 2024-05-08 12:59:28.946
18.0, -25101.701927387945, 0.0, 0.0, 0.0, 0.0, 0.0, 0.0, 0.0, 0.002, -0.046, 0.986, 192.0, 0.0, 16.0, 254.0, 144.0, 30.0, 208.0, 0.0, 0.0, 0.0, 1.7151623689464664E9, 0.0, 2024-05-08 12:59:28.946
19.0, -25745.879202589895, 0.0, 0.0, 0.0, 0.0, 0.0, 0.0, 0.0, 0.002, -0.046, 0.986, 192.0, 0.0, 0.0, 0.0, 0.0, 0.0, 0.0, 0.0, 0.0, 0.0, 1.7151623689464862E9, 0.0, 2024-05-08 12:59:28.946
20.0, -25193.053506976787, 0.0, 0.0, 0.0, 0.0, 0.0, 0.0, 0.0, 0.002, -0.046, 0.986, 192.0, 0.0, 0.0, 0.0, 0.0, 0.0, 0.0, 0.0, 0.0, 0.0, 1.7151623689465053E9, 0.0, 2024-05-08 12:59:28.946
21.0, -23435.40172998926, 0.0, 0.0, 0.0, 0.0, 0.0, 0.0, 0.0, 0.002, -0.046, 0.986, 192.0, 0.0, 0.0, 0.0, 0.0, 0.0, 0.0, 0.0, 0.0, 0.0, 1.7151623689465253E9, 0.0, 2024-05-08 12:59:28.946
22.0, -22115.888847814662, 0.0, 0.0, 0.0, 0.0, 0.0, 0.0, 0.0, 0.002, -0.046, 0.986, 192.0, 0.0, 0.0, 0.0, 0.0, 0.0, 0.0, 0.0, 0.0, 0.0, 1.7151623689465444E9, 0.0, 2024-05-08 12:59:28.946
23.0, -22520.58953292245, 0.0, 0.0, 0.0, 0.0, 0.0, 0.0, 0.0, 0.002, -0.046, 0.986, 192.0, 0.0, 0.0, 0.0, 0.0, 0.0, 0.0, 0.0, 0.0, 0.0, 1.7151623689465625E9, 0.0, 2024-05-08 12:59:28.946
24.0, -23317.965664621075, 0.0, 0.0, 0.0, 0.0, 0.0, 0.0, 0.0, 0.002, -0.046, 0.986, 192.0, 0.0, 0.0, 0.0, 0.0, 0.0, 0.0, 0.0, 0.0, 0.0, 1.715162368946581E9, 0.0, 2024-05-08 12:59:28.946
25.0, -23063.625164464138, 0.0, 0.0, 0.0, 0.0, 0.0, 0.0, 0.0, 0.002, -0.046, 0.986, 192.0, 0.0, 0.0, 0.0, 0.0, 0.0, 0.0, 0.0, 0.0, 0.0, 1.7151623689465992E9, 0.0, 2024-05-08 12:59:28.946
26.0, -21696.167790432908, 0.0, 0.0, 0.0, 0.0, 0.0, 0.0, 0.0, 0.002, -0.046, 0.986, 192.0, 0.0, 0.0, 0.0, 0.0, 0.0, 0.0, 0.0, 0.0, 0.0, 1.7151623689466176E9, 0.0, 2024-05-08 12:59:28.946
27.0, -20665.730019298797, 0.0, 0.0, 0.0, 0.0, 0.0, 0.0, 0.0, 0.002, -0.046, 0.986, 192.0, 0.0, 0.0, 0.0, 0.0, 0.0, 0.0, 0.0, 0.0, 0.0, 1.7151623689466376E9, 0.0, 2024-05-08 12:59:28.946
28.0, -21305.50400084305, 0.0, 0.0, 0.0, 0.0, 0.0, 0.0, 0.0, 0.004, -0.048, 0.994, 192.0, 0.0, 32.0, 254.0, 128.0, 31.0, 16.0, 0.0, 0.0, 0.0, 1.715162368946656E9, 0.0, 2024-05-08 12:59:28.946
29.0, -22410.730708924617, 0.0, 0.0, 0.0, 0.0, 0.0, 0.0, 0.0, 0.004, -0.048, 0.994, 192.0, 0.0, 0.0, 0.0, 0.0, 0.0, 0.0, 0.0, 0.0, 0.0, 1.715162368946675E9, 0.0, 2024-05-08 12:59:28.946
30.0, -22306.951559418627, 0.0, 0.0, 0.0, 0.0, 0.0, 0.0, 0.0, 0.004, -0.048, 0.994, 192.0, 0.0, 0.0, 0.0, 0.0, 0.0, 0.0, 0.0, 0.0, 0.0, 1.7151623689466932E9, 0.0, 2024-05-08 12:59:28.946
31.0, -20878.853902680148, 0.0, 0.0, 0.0, 0.0, 0.0, 0.0, 0.0, 0.004, -0.048, 0.994, 192.0, 0.0, 0.0, 0.0, 0.0, 0.0, 0.0, 0.0, 0.0, 0.0, 1.715162368946711E9, 0.0, 2024-05-08 12:59:28.946
32.0, -19779.215130712408, 0.0, 0.0, 0.0, 0.0, 0.0, 0.0, 0.0, 0.004, -0.048, 0.994, 192.0, 0.0, 0.0, 0.0, 0.0, 0.0, 0.0, 0.0, 0.0, 0.0, 1.7151623689467292E9, 0.0, 2024-05-08 12:59:28.946
33.0, -20305.82223007944, 0.0, 0.0, 0.0, 0.0, 0.0, 0.0, 0.0, 0.004, -0.048, 0.994, 192.0, 0.0, 0.0, 0.0, 0.0, 0.0, 0.0, 0.0, 0.0, 0.0, 1.7151623689467683E9, 0.0, 2024-05-08 12:59:28.946
34.0, -21147.633629755215, 0.0, 0.0, 0.0, 0.0, 0.0, 0.0, 0.0, 0.004, -0.048, 0.994, 192.0, 0.0, 0.0, 0.0, 0.0, 0.0, 0.0, 0.0, 0.0, 0.0, 1.7151623689467878E9, 0.0, 2024-05-08 12:59:28.946
35.0, -20894.120144143122, 0.0, 0.0, 0.0, 0.0, 0.0, 0.0, 0.0, 0.004, -0.048, 0.994, 192.0, 0.0, 0.0, 0.0, 0.0, 0.0, 0.0, 0.0, 0.0, 0.0, 1.7151623689468055E9, 0.0, 2024-05-08 12:59:28.946
36.0, -19468.682344994824, 0.0, 0.0, 0.0, 0.0, 0.0, 0.0, 0.0, 0.004, -0.048, 0.994, 192.0, 0.0, 0.0, 0.0, 0.0, 0.0, 0.0, 0.0, 0.0, 0.0, 1.7151623689468687E9, 0.0, 2024-05-08 12:59:28.946
37.0, -18282.877598151874, 0.0, 0.0, 0.0, 0.0, 0.0, 0.0, 0.0, 0.004, -0.048, 0.994, 192.0, 0.0, 0.0, 0.0, 0.0, 0.0, 0.0, 0.0, 0.0, 0.0, 1.715162368946886E9, 0.0, 2024-05-08 12:59:28.946
38.0, -18750.4760921569, 0.0, 0.0, 0.0, 0.0, 0.0, 0.0, 0.0, 0.004, -0.05, 0.996, 192.0, 0.0, 32.0, 254.0, 112.0, 31.0, 32.0, 0.0, 0.0, 0.0, 1.7151623689469037E9, 0.0, 2024-05-08 12:59:28.946
39.0, -19646.82574830362, 0.0, 0.0, 0.0, 0.0, 0.0, 0.0, 0.0, 0.004, -0.05, 0.996, 192.0, 0.0, 0.0, 0.0, 0.0, 0.0, 0.0, 0.0, 0.0, 0.0, 1.715162368946922E9, 0.0, 2024-05-08 12:59:28.946
40.0, -19461.686248980313, 0.0, 0.0, 0.0, 0.0, 0.0, 0.0, 0.0, 0.004, -0.05, 0.996, 192.0, 0.0, 0.0, 0.0, 0.0, 0.0, 0.0, 0.0, 0.0, 0.0, 1.7151623689469426E9, 0.0, 2024-05-08 12:59:28.946
41.0, -18140.988724349587, 0.0, 0.0, 0.0, 0.0, 0.0, 0.0, 0.0, 0.004, -0.05, 0.996, 192.0, 0.0, 0.0, 0.0, 0.0, 0.0, 0.0, 0.0, 0.0, 0.0, 1.7151623689469595E9, 0.0, 2024-05-08 12:59:28.946
42.0, -17189.474962887165, 0.0, 0.0, 0.0, 0.0, 0.0, 0.0, 0.0, 0.004, -0.05, 0.996, 192.0, 0.0, 0.0, 0.0, 0.0, 0.0, 0.0, 0.0, 0.0, 0.0, 1.715162368946977E9, 0.0, 2024-05-08 12:59:28.946
43.0, -17860.317869224295, 0.0, 0.0, 0.0, 0.0, 0.0, 0.0, 0.0, 0.004, -0.05, 0.996, 192.0, 0.0, 0.0, 0.0, 0.0, 0.0, 0.0, 0.0, 0.0, 0.0, 1.7151623689469943E9, 0.0, 2024-05-08 12:59:28.946
44.0, -18980.65435655765, 0.0, 0.0, 0.0, 0.0, 0.0, 0.0, 0.0, 0.004, -0.05, 0.996, 192.0, 0.0, 0.0, 0.0, 0.0, 0.0, 0.0, 0.0, 0.0, 0.0, 1.7151623689470136E9, 0.0, 2024-05-08 12:59:28.947
45.0, -19087.652157265205, 0.0, 0.0, 0.0, 0.0, 0.0, 0.0, 0.0, 0.004, -0.05, 0.996, 192.0, 0.0, 0.0, 0.0, 0.0, 0.0, 0.0, 0.0, 0.0, 0.0, 1.7151623689470325E9, 0.0, 2024-05-08 12:59:28.947
46.0, -18004.307807005385, 0.0, 0.0, 0.0, 0.0, 0.0, 0.0, 0.0, 0.004, -0.05, 0.996, 192.0, 0.0, 0.0, 0.0, 0.0, 0.0, 0.0, 0.0, 0.0, 0.0, 1.7151623689470513E9, 0.0, 2024-05-08 12:59:28.947
47.0, -17074.72110685362, 0.0, 0.0, 0.0, 0.0, 0.0, 0.0, 0.0, 0.004, -0.05, 0.996, 192.0, 0.0, 0.0, 0.0, 0.0, 0.0, 0.0, 0.0, 0.0, 0.0, 1.715162368947072E9, 0.0, 2024-05-08 12:59:28.947
48.0, -17528.66268499645, 0.0, 0.0, 0.0, 0.0, 0.0, 0.0, 0.0, 0.004, -0.046, 0.992, 192.0, 0.0, 32.0, 254.0, 144.0, 31.0, 0.0, 0.0, 0.0, 0.0, 1.715162368947091E9, 0.0, 2024-05-08 12:59:28.947
49.0, -18320.24971488115, 0.0, 0.0, 0.0, 0.0, 0.0, 0.0, 0.0, 0.004, -0.046, 0.992, 192.0, 0.0, 0.0, 0.0, 0.0, 0.0, 0.0, 0.0, 0.0, 0.0, 1.7151623689471104E9, 0.0, 2024-05-08 12:59:28.947
50.0, -18053.973383185075, 0.0, 0.0, 0.0, 0.0, 0.0, 0.0, 0.0, 0.004, -0.046, 0.992, 192.0, 0.0, 0.0, 0.0, 0.0, 0.0, 0.0, 0.0, 0.0, 0.0, 1.7151623689471512E9, 0.0, 2024-05-08 12:59:28.947
51.0, -16725.743320672907, 0.0, 0.0, 0.0, 0.0, 0.0, 0.0, 0.0, 0.004, -0.046, 0.992, 192.0, 0.0, 0.0, 0.0, 0.0, 0.0, 0.0, 0.0, 0.0, 0.0, 1.715162368947169E9, 0.0, 2024-05-08 12:59:28.947
52.0, -15686.72247966796, 0.0, 0.0, 0.0, 0.0, 0.0, 0.0, 0.0, 0.004, -0.046, 0.992, 192.0, 0.0, 0.0, 0.0, 0.0, 0.0, 0.0, 0.0, 0.0, 0.0, 1.7151623689471877E9, 0.0, 2024-05-08 12:59:28.947
53.0, -16026.826623299912, 0.0, 0.0, 0.0, 0.0, 0.0, 0.0, 0.0, 0.004, -0.046, 0.992, 192.0, 0.0, 0.0, 0.0, 0.0, 0.0, 0.0, 0.0, 0.0, 0.0, 1.7151623689472086E9, 0.0, 2024-05-08 12:59:28.947
54.0, -17273.450466805753, 0.0, 0.0, 0.0, 0.0, 0.0, 0.0, 0.0, 0.004, -0.046, 0.992, 192.0, 0.0, 0.0, 0.0, 0.0, 0.0, 0.0, 0.0, 0.0, 0.0, 1.7151623689472277E9, 0.0, 2024-05-08 12:59:28.947
55.0, -17479.332384983587, 0.0, 0.0, 0.0, 0.0, 0.0, 0.0, 0.0, 0.004, -0.046, 0.992, 192.0, 0.0, 0.0, 0.0, 0.0, 0.0, 0.0, 0.0, 0.0, 0.0, 1.7151623689472558E9, 0.0, 2024-05-08 12:59:28.947
56.0, -16515.256943137283, 0.0, 0.0, 0.0, 0.0, 0.0, 0.0, 0.0, 0.004, -0.046, 0.992, 192.0, 0.0, 0.0, 0.0, 0.0, 0.0, 0.0, 0.0, 0.0, 0.0, 1.7151623689472773E9, 0.0, 2024-05-08 12:59:28.947
57.0, -15972.601291251338, 0.0, 0.0, 0.0, 0.0, 0.0, 0.0, 0.0, 0.004, -0.046, 0.992, 192.0, 0.0, 0.0, 0.0, 0.0, 0.0, 0.0, 0.0, 0.0, 0.0, 1.7151623689472952E9, 0.0, 2024-05-08 12:59:28.947
58.0, -16844.989877341974, 0.0, 0.0, 0.0, 0.0, 0.0, 0.0, 0.0, 0.004, -0.046, 0.992, 192.0, 0.0, 0.0, 254.0, 128.0, 31.0, 16.0, 0.0, 0.0, 0.0, 1.7151623689473133E9, 0.0, 2024-05-08 12:59:28.947
59.0, -18401.49830597619, 0.0, 0.0, 0.0, 0.0, 0.0, 0.0, 0.0, 0.004, -0.046, 0.992, 192.0, 0.0, 0.0, 0.0, 0.0, 0.0, 0.0, 0.0, 0.0, 0.0, 1.7151623689473324E9, 0.0, 2024-05-08 12:59:28.947
60.0, -18598.551285094178, 0.0, 0.0, 0.0, 0.0, 0.0, 0.0, 0.0, 0.004, -0.046, 0.992, 192.0, 0.0, 0.0, 0.0, 0.0, 0.0, 0.0, 0.0, 0.0, 0.0, 1.7151623689473526E9, 0.0, 2024-05-08 12:59:28.947
61.0, -17696.41252713353, 0.0, 0.0, 0.0, 0.0, 0.0, 0.0, 0.0, 0.004, -0.046, 0.992, 192.0, 0.0, 0.0, 0.0, 0.0, 0.0, 0.0, 0.0, 0.0, 0.0, 1.7151623689473703E9, 0.0, 2024-05-08 12:59:28.947
62.0, -17132.545069759497, 0.0, 0.0, 0.0, 0.0, 0.0, 0.0, 0.0, 0.004, -0.046, 0.992, 192.0, 0.0, 0.0, 0.0, 0.0, 0.0, 0.0, 0.0, 0.0, 0.0, 1.7151623689473886E9, 0.0, 2024-05-08 12:59:28.947
63.0, -17845.789235328346, 0.0, 0.0, 0.0, 0.0, 0.0, 0.0, 0.0, 0.004, -0.046, 0.992, 192.0, 0.0, 0.0, 0.0, 0.0, 0.0, 0.0, 0.0, 0.0, 0.0, 1.7151623689474068E9, 0.0, 2024-05-08 12:59:28.947
64.0, -18857.83152077574, 0.0, 0.0, 0.0, 0.0, 0.0, 0.0, 0.0, 0.004, -0.046, 0.992, 192.0, 0.0, 0.0, 0.0, 0.0, 0.0, 0.0, 0.0, 0.0, 0.0, 1.7151623689474256E9, 0.0, 2024-05-08 12:59:28.947
65.0, -19106.137049929745, 0.0, 0.0, 0.0, 0.0, 0.0, 0.0, 0.0, 0.004, -0.046, 0.992, 192.0, 0.0, 0.0, 0.0, 0.0, 0.0, 0.0, 0.0, 0.0, 0.0, 1.7151623689474456E9, 0.0, 2024-05-08 12:59:28.947
66.0, -18357.7335903327, 0.0, 0.0, 0.0, 0.0, 0.0, 0.0, 0.0, 0.004, -0.046, 0.992, 192.0, 0.0, 0.0, 0.0, 0.0, 0.0, 0.0, 0.0, 0.0, 0.0, 1.715162368947468E9, 0.0, 2024-05-08 12:59:28.947
67.0, -17540.46440606885, 0.0, 0.0, 0.0, 0.0, 0.0, 0.0, 0.0, 0.004, -0.046, 0.992, 192.0, 0.0, 0.0, 0.0, 0.0, 0.0, 0.0, 0.0, 0.0, 0.0, 1.715162368947486E9, 0.0, 2024-05-08 12:59:28.947
68.0, -18013.874353632254, 0.0, 0.0, 0.0, 0.0, 0.0, 0.0, 0.0, 0.004, -0.048, 0.988, 192.0, 0.0, 32.0, 254.0, 128.0, 30.0, 224.0, 0.0, 0.0, 0.0, 1.715162368947523E9, 0.0, 2024-05-08 12:59:28.947
69.0, -19117.849364024325, 0.0, 0.0, 0.0, 0.0, 0.0, 0.0, 0.0, 0.004, -0.048, 0.988, 192.0, 0.0, 0.0, 0.0, 0.0, 0.0, 0.0, 0.0, 0.0, 0.0, 1.715162368947543E9, 0.0, 2024-05-08 12:59:28.947
70.0, -19188.45852475864, 0.0, 0.0, 0.0, 0.0, 0.0, 0.0, 0.0, 0.004, -0.048, 0.988, 192.0, 0.0, 0.0, 0.0, 0.0, 0.0, 0.0, 0.0, 0.0, 0.0, 1.7151623689475613E9, 0.0, 2024-05-08 12:59:28.947
71.0, -18117.117061271318, 0.0, 0.0, 0.0, 0.0, 0.0, 0.0, 0.0, 0.004, -0.048, 0.988, 192.0, 0.0, 0.0, 0.0, 0.0, 0.0, 0.0, 0.0, 0.0, 0.0, 1.7151623689475791E9, 0.0, 2024-05-08 12:59:28.947
72.0, -17268.26486209212, 0.0, 0.0, 0.0, 0.0, 0.0, 0.0, 0.0, 0.004, -0.048, 0.988, 192.0, 0.0, 0.0, 0.0, 0.0, 0.0, 0.0, 0.0, 0.0, 0.0, 1.7151623689475975E9, 0.0, 2024-05-08 12:59:28.947
73.0, -17746.346324246686, 0.0, 0.0, 0.0, 0.0, 0.0, 0.0, 0.0, 0.004, -0.048, 0.988, 192.0, 0.0, 0.0, 0.0, 0.0, 0.0, 0.0, 0.0, 0.0, 0.0, 1.7151623689476178E9, 0.0, 2024-05-08 12:59:28.947
74.0, -18739.61314435162, 0.0, 0.0, 0.0, 0.0, 0.0, 0.0, 0.0, 0.004, -0.048, 0.988, 192.0, 0.0, 0.0, 0.0, 0.0, 0.0, 0.0, 0.0, 0.0, 0.0, 1.7151623689476361E9, 0.0, 2024-05-08 12:59:28.947
75.0, -18911.341597001745, 0.0, 0.0, 0.0, 0.0, 0.0, 0.0, 0.0, 0.004, -0.048, 0.988, 192.0, 0.0, 0.0, 0.0, 0.0, 0.0, 0.0, 0.0, 0.0, 0.0, 1.7151623689476545E9, 0.0, 2024-05-08 12:59:28.947
76.0, -17964.007611752466, 0.0, 0.0, 0.0, 0.0, 0.0, 0.0, 0.0, 0.004, -0.048, 0.988, 192.0, 0.0, 0.0, 0.0, 0.0, 0.0, 0.0, 0.0, 0.0, 0.0, 1.715162368947673E9, 0.0, 2024-05-08 12:59:28.947
77.0, -17117.68115969672, 0.0, 0.0, 0.0, 0.0, 0.0, 0.0, 0.0, 0.004, -0.048, 0.988, 192.0, 0.0, 0.0, 0.0, 0.0, 0.0, 0.0, 0.0, 0.0, 0.0, 1.7151623689476914E9, 0.0, 2024-05-08 12:59:28.947
78.0, -17662.92961393948, 0.0, 0.0, 0.0, 0.0, 0.0, 0.0, 0.0, 0.002, -0.048, 0.99, 192.0, 0.0, 16.0, 254.0, 128.0, 30.0, 240.0, 0.0, 0.0, 0.0, 1.7151623689477117E9, 0.0, 2024-05-08 12:59:28.947
79.0, -18701.235199121857, 0.0, 0.0, 0.0, 0.0, 0.0, 0.0, 0.0, 0.002, -0.048, 0.99, 192.0, 0.0, 0.0, 0.0, 0.0, 0.0, 0.0, 0.0, 0.0, 0.0, 1.7151623689477863E9, 0.0, 2024-05-08 12:59:28.947
80.0, -18837.91611646606, 0.0, 0.0, 0.0, 0.0, 0.0, 0.0, 0.0, 0.002, -0.048, 0.99, 192.0, 0.0, 0.0, 0.0, 0.0, 0.0, 0.0, 0.0, 0.0, 0.0, 1.7151623689478264E9, 0.0, 2024-05-08 12:59:28.947
81.0, -17908.35176805875, 0.0, 0.0, 0.0, 0.0, 0.0, 0.0, 0.0, 0.002, -0.048, 0.99, 192.0, 0.0, 0.0, 0.0, 0.0, 0.0, 0.0, 0.0, 0.0, 0.0, 1.715162368947852E9, 0.0, 2024-05-08 12:59:28.947
82.0, -17178.969642993172, 0.0, 0.0, 0.0, 0.0, 0.0, 0.0, 0.0, 0.002, -0.048, 0.99, 192.0, 0.0, 0.0, 0.0, 0.0, 0.0, 0.0, 0.0, 0.0, 0.0, 1.7151623689478712E9, 0.0, 2024-05-08 12:59:28.947
83.0, -17673.725506511393, 0.0, 0.0, 0.0, 0.0, 0.0, 0.0, 0.0, 0.002, -0.048, 0.99, 192.0, 0.0, 0.0, 0.0, 0.0, 0.0, 0.0, 0.0, 0.0, 0.0, 1.7151623689478886E9, 0.0, 2024-05-08 12:59:28.947
84.0, -18585.38610761, 0.0, 0.0, 0.0, 0.0, 0.0, 0.0, 0.0, 0.002, -0.048, 0.99, 192.0, 0.0, 0.0, 0.0, 0.0, 0.0, 0.0, 0.0, 0.0, 0.0, 1.7151623689479065E9, 0.0, 2024-05-08 12:59:28.947
85.0, -18641.377227470544, 0.0, 0.0, 0.0, 0.0, 0.0, 0.0, 0.0, 0.002, -0.048, 0.99, 192.0, 0.0, 0.0, 0.0, 0.0, 0.0, 0.0, 0.0, 0.0, 0.0, 1.7151623689480748E9, 0.0, 2024-05-08 12:59:28.948
86.0, -17555.529481831727, 0.0, 0.0, 0.0, 0.0, 0.0, 0.0, 0.0, 0.002, -0.048, 0.99, 192.0, 0.0, 0.0, 0.0, 0.0, 0.0, 0.0, 0.0, 0.0, 0.0, 1.715162368948098E9, 0.0, 2024-05-08 12:59:28.948
87.0, -16544.202452206904, 0.0, 0.0, 0.0, 0.0, 0.0, 0.0, 0.0, 0.002, -0.048, 0.99, 192.0, 0.0, 0.0, 0.0, 0.0, 0.0, 0.0, 0.0, 0.0, 0.0, 1.7151623689481184E9, 0.0, 2024-05-08 12:59:28.948
88.0, -17043.205147171637, 0.0, 0.0, 0.0, 0.0, 0.0, 0.0, 0.0, 0.006, -0.046, 1.0, 192.0, 0.0, 48.0, 254.0, 144.0, 31.0, 64.0, 0.0, 0.0, 0.0, 1.7151623689481387E9, 0.0, 2024-05-08 12:59:28.948
89.0, -18174.538692777, 0.0, 0.0, 0.0, 0.0, 0.0, 0.0, 0.0, 0.006, -0.046, 1.0, 192.0, 0.0, 0.0, 0.0, 0.0, 0.0, 0.0, 0.0, 0.0, 0.0, 1.7151623689481587E9, 0.0, 2024-05-08 12:59:28.948
90.0, -18380.532369677112, 0.0, 0.0, 0.0, 0.0, 0.0, 0.0, 0.0, 0.006, -0.046, 1.0, 192.0, 0.0, 0.0, 0.0, 0.0, 0.0, 0.0, 0.0, 0.0, 0.0, 1.7151623689481783E9, 0.0, 2024-05-08 12:59:28.948
91.0, -17274.545702284064, 0.0, 0.0, 0.0, 0.0, 0.0, 0.0, 0.0, 0.006, -0.046, 1.0, 192.0, 0.0, 0.0, 0.0, 0.0, 0.0, 0.0, 0.0, 0.0, 0.0, 1.7151623689482E9, 0.0, 2024-05-08 12:59:28.948
92.0, -16284.251664191685, 0.0, 0.0, 0.0, 0.0, 0.0, 0.0, 0.0, 0.006, -0.046, 1.0, 192.0, 0.0, 0.0, 0.0, 0.0, 0.0, 0.0, 0.0, 0.0, 0.0, 1.715162368948214E9, 0.0, 2024-05-08 12:59:28.948
93.0, -16712.824012377743, 0.0, 0.0, 0.0, 0.0, 0.0, 0.0, 0.0, 0.006, -0.046, 1.0, 192.0, 0.0, 0.0, 0.0, 0.0, 0.0, 0.0, 0.0, 0.0, 0.0, 1.7151623689482296E9, 0.0, 2024-05-08 12:59:28.948
94.0, -17632.799462413725, 0.0, 0.0, 0.0, 0.0, 0.0, 0.0, 0.0, 0.006, -0.046, 1.0, 192.0, 0.0, 0.0, 0.0, 0.0, 0.0, 0.0, 0.0, 0.0, 0.0, 1.7151623689482431E9, 0.0, 2024-05-08 12:59:28.948
95.0, -17592.141639249523, 0.0, 0.0, 0.0, 0.0, 0.0, 0.0, 0.0, 0.006, -0.046, 1.0, 192.0, 0.0, 0.0, 0.0, 0.0, 0.0, 0.0, 0.0, 0.0, 0.0, 1.7151623689482567E9, 0.0, 2024-05-08 12:59:28.948
96.0, -16429.940334551375, 0.0, 0.0, 0.0, 0.0, 0.0, 0.0, 0.0, 0.006, -0.046, 1.0, 192.0, 0.0, 0.0, 0.0, 0.0, 0.0, 0.0, 0.0, 0.0, 0.0, 1.7151623689482703E9, 0.0, 2024-05-08 12:59:28.948
97.0, -15441.166215081957, 0.0, 0.0, 0.0, 0.0, 0.0, 0.0, 0.0, 0.006, -0.046, 1.0, 192.0, 0.0, 0.0, 0.0, 0.0, 0.0, 0.0, 0.0, 0.0, 0.0, 1.7151623689482844E9, 0.0, 2024-05-08 12:59:28.948
98.0, -15847.744446723993, 0.0, 0.0, 0.0, 0.0, 0.0, 0.0, 0.0, 0.008, -0.048, 0.998, 192.0, 0.0, 64.0, 254.0, 128.0, 31.0, 48.0, 0.0, 0.0, 0.0, 1.715162368948298E9, 0.0, 2024-05-08 12:59:28.948
99.0, -16859.742028682474, 0.0, 0.0, 0.0, 0.0, 0.0, 0.0, 0.0, 0.008, -0.048, 0.998, 192.0, 0.0, 0.0, 0.0, 0.0, 0.0, 0.0, 0.0, 0.0, 0.0, 1.7151623689483144E9, 0.0, 2024-05-08 12:59:28.948
100.0, -16904.15494491517, 0.0, 0.0, 0.0, 0.0, 0.0, 0.0, 0.0, 0.008, -0.048, 0.998, 192.0, 0.0, 0.0, 0.0, 0.0, 0.0, 0.0, 0.0, 0.0, 0.0, 1.715162368948328E9, 0.0, 2024-05-08 12:59:28.948
101.0, -15676.86536036317, 0.0, 0.0, 0.0, 0.0, 0.0, 0.0, 0.0, 0.008, -0.048, 0.998, 192.0, 0.0, 0.0, 0.0, 0.0, 0.0, 0.0, 0.0, 0.0, 0.0, 1.715162368948342E9, 0.0, 2024-05-08 12:59:28.948
102.0, -14600.539457862313, 0.0, 0.0, 0.0, 0.0, 0.0, 0.0, 0.0, 0.008, -0.048, 0.998, 192.0, 0.0, 0.0, 0.0, 0.0, 0.0, 0.0, 0.0, 0.0, 0.0, 1.7151623689483557E9, 0.0, 2024-05-08 12:59:28.948
103.0, -14939.391903804768, 0.0, 0.0, 0.0, 0.0, 0.0, 0.0, 0.0, 0.008, -0.048, 0.998, 192.0, 0.0, 0.0, 0.0, 0.0, 0.0, 0.0, 0.0, 0.0, 0.0, 1.7151623689483836E9, 0.0, 2024-05-08 12:59:28.948
104.0, -15854.964060183056, 0.0, 0.0, 0.0, 0.0, 0.0, 0.0, 0.0, 0.008, -0.048, 0.998, 192.0, 0.0, 0.0, 0.0, 0.0, 0.0, 0.0, 0.0, 0.0, 0.0, 1.7151623689483974E9, 0.0, 2024-05-08 12:59:28.948
105.0, -15875.70647903758, 0.0, 0.0, 0.0, 0.0, 0.0, 0.0, 0.0, 0.008, -0.048, 0.998, 192.0, 0.0, 0.0, 0.0, 0.0, 0.0, 0.0, 0.0, 0.0, 0.0, 1.7151623689484117E9, 0.0, 2024-05-08 12:59:28.948
106.0, -14614.330484191238, 0.0, 0.0, 0.0, 0.0, 0.0, 0.0, 0.0, 0.008, -0.048, 0.998, 192.0, 0.0, 0.0, 0.0, 0.0, 0.0, 0.0, 0.0, 0.0, 0.0, 1.7151623689484289E9, 0.0, 2024-05-08 12:59:28.948
107.0, -13373.585149477143, 0.0, 0.0, 0.0, 0.0, 0.0, 0.0, 0.0, 0.008, -0.048, 0.998, 192.0, 0.0, 0.0, 0.0, 0.0, 0.0, 0.0, 0.0, 0.0, 0.0, 1.7151623689484444E9, 0.0, 2024-05-08 12:59:28.948
108.0, -13534.182433388523, 0.0, 0.0, 0.0, 0.0, 0.0, 0.0, 0.0, 0.004, -0.046, 0.996, 192.0, 0.0, 32.0, 254.0, 144.0, 31.0, 32.0, 0.0, 0.0, 0.0, 1.7151623689484584E9, 0.0, 2024-05-08 12:59:28.948
109.0, -14291.839515190068, 0.0, 0.0, 0.0, 0.0, 0.0, 0.0, 0.0, 0.004, -0.046, 0.996, 192.0, 0.0, 0.0, 0.0, 0.0, 0.0, 0.0, 0.0, 0.0, 0.0, 1.7151623689484727E9, 0.0, 2024-05-08 12:59:28.948
110.0, -14105.895353066368, 0.0, 0.0, 0.0, 0.0, 0.0, 0.0, 0.0, 0.004, -0.046, 0.996, 192.0, 0.0, 0.0, 0.0, 0.0, 0.0, 0.0, 0.0, 0.0, 0.0, 1.7151623689484866E9, 0.0, 2024-05-08 12:59:28.948
111.0, -12637.609259797247, 0.0, 0.0, 0.0, 0.0, 0.0, 0.0, 0.0, 0.004, -0.046, 0.996, 192.0, 0.0, 0.0, 0.0, 0.0, 0.0, 0.0, 0.0, 0.0, 0.0, 1.7151623689485002E9, 0.0, 2024-05-08 12:59:28.948
112.0, -11230.946925991408, 0.0, 0.0, 0.0, 0.0, 0.0, 0.0, 0.0, 0.004, -0.046, 0.996, 192.0, 0.0, 0.0, 0.0, 0.0, 0.0, 0.0, 0.0, 0.0, 0.0, 1.715162368948516E9, 0.0, 2024-05-08 12:59:28.948
113.0, -11238.926498761952, 0.0, 0.0, 0.0, 0.0, 0.0, 0.0, 0.0, 0.004, -0.046, 0.996, 192.0, 0.0, 0.0, 0.0, 0.0, 0.0, 0.0, 0.0, 0.0, 0.0, 1.7151623689485295E9, 0.0, 2024-05-08 12:59:28.948
114.0, -11817.993142365593, 0.0, 0.0, 0.0, 0.0, 0.0, 0.0, 0.0, 0.004, -0.046, 0.996, 192.0, 0.0, 0.0, 0.0, 0.0, 0.0, 0.0, 0.0, 0.0, 0.0, 1.7151623689485433E9, 0.0, 2024-05-08 12:59:28.948
115.0, -11400.104928029172, 0.0, 0.0, 0.0, 0.0, 0.0, 0.0, 0.0, 0.004, -0.046, 0.996, 192.0, 0.0, 0.0, 0.0, 0.0, 0.0, 0.0, 0.0, 0.0, 0.0, 1.715162368948557E9, 0.0, 2024-05-08 12:59:28.948
116.0, -9604.43283372317, 0.0, 0.0, 0.0, 0.0, 0.0, 0.0, 0.0, 0.004, -0.046, 0.996, 192.0, 0.0, 0.0, 0.0, 0.0, 0.0, 0.0, 0.0, 0.0, 0.0, 1.7151623689485724E9, 0.0, 2024-05-08 12:59:28.948
117.0, -7806.726730671732, 0.0, 0.0, 0.0, 0.0, 0.0, 0.0, 0.0, 0.004, -0.046, 0.996, 192.0, 0.0, 0.0, 0.0, 0.0, 0.0, 0.0, 0.0, 0.0, 0.0, 1.7151623689485862E9, 0.0, 2024-05-08 12:59:28.948
118.0, -7426.702371442601, 0.0, 0.0, 0.0, 0.0, 0.0, 0.0, 0.0, 0.004, -0.044, 0.996, 192.0, 0.0, 32.0, 254.0, 160.0, 31.0, 32.0, 0.0, 0.0, 0.0, 1.7151623689486E9, 0.0, 2024-05-08 12:59:28.948
119.0, -7620.156719703284, 0.0, 0.0, 0.0, 0.0, 0.0, 0.0, 0.0, 0.004, -0.044, 0.996, 192.0, 0.0, 0.0, 0.0, 0.0, 0.0, 0.0, 0.0, 0.0, 0.0, 1.7151623689486208E9, 0.0, 2024-05-08 12:59:28.948
120.0, -6784.693215452817, 0.0, 0.0, 0.0, 0.0, 0.0, 0.0, 0.0, 0.004, -0.044, 0.996, 192.0, 0.0, 0.0, 0.0, 0.0, 0.0, 0.0, 0.0, 0.0, 0.0, 1.7151623689486563E9, 0.0, 2024-05-08 12:59:28.948
121.0, -4550.502246678144, 0.0, 0.0, 0.0, 0.0, 0.0, 0.0, 0.0, 0.004, -0.044, 0.996, 192.0, 0.0, 0.0, 0.0, 0.0, 0.0, 0.0, 0.0, 0.0, 0.0, 1.7151623689486768E9, 0.0, 2024-05-08 12:59:28.948
122.0, -2307.8399667549097, 0.0, 0.0, 0.0, 0.0, 0.0, 0.0, 0.0, 0.004, -0.044, 0.996, 192.0, 0.0, 0.0, 0.0, 0.0, 0.0, 0.0, 0.0, 0.0, 0.0, 1.7151623694254773E9, 0.0, 2024-05-08 12:59:29.425
123.0, -1561.8504955590363, 0.0, 0.0, 0.0, 0.0, 0.0, 0.0, 0.0, 0.004, -0.044, 0.996, 192.0, 0.0, 0.0, 0.0, 0.0, 0.0, 0.0, 0.0, 0.0, 0.0, 1.7151623694255497E9, 0.0, 2024-05-08 12:59:29.425
124.0, -1496.2257738382548, 0.0, 0.0, 0.0, 0.0, 0.0, 0.0, 0.0, 0.004, -0.044, 0.996, 192.0, 0.0, 0.0, 0.0, 0.0, 0.0, 0.0, 0.0, 0.0, 0.0, 1.7151623694255817E9, 0.0, 2024-05-08 12:59:29.425
125.0, -500.5449653321464, 0.0, 0.0, 0.0, 0.0, 0.0, 0.0, 0.0, 0.004, -0.044, 0.996, 192.0, 0.0, 0.0, 0.0, 0.0, 0.0, 0.0, 0.0, 0.0, 0.0, 1.715162369425611E9, 0.0, 2024-05-08 12:59:29.425
126.0, 1827.7691993438245, 0.0, 0.0, 0.0, 0.0, 0.0, 0.0, 0.0, 0.004, -0.044, 0.996, 192.0, 0.0, 0.0, 0.0, 0.0, 0.0, 0.0, 0.0, 0.0, 0.0, 1.7151623694256437E9, 0.0, 2024-05-08 12:59:29.425
127.0, 4058.5850547057457, 0.0, 0.0, 0.0, 0.0, 0.0, 0.0, 0.0, 0.004, -0.044, 0.996, 192.0, 0.0, 0.0, 0.0, 0.0, 0.0, 0.0, 0.0, 0.0, 0.0, 1.715162369425663E9, 0.0, 2024-05-08 12:59:29.425
128.0, 4758.5522840681415, 0.0, 0.0, 0.0, 0.0, 0.0, 0.0, 0.0, 0.008, -0.05, 1.002, 192.0, 0.0, 64.0, 254.0, 112.0, 31.0, 80.0, 0.0, 0.0, 0.0, 1.7151623694256816E9, 0.0, 2024-05-08 12:59:29.425
129.0, 4718.6320684709635, 0.0, 0.0, 0.0, 0.0, 0.0, 0.0, 0.0, 0.008, -0.05, 1.002, 192.0, 0.0, 0.0, 0.0, 0.0, 0.0, 0.0, 0.0, 0.0, 0.0, 1.715162369425702E9, 0.0, 2024-05-08 12:59:29.425
130.0, 5550.228720930662, 0.0, 0.0, 0.0, 0.0, 0.0, 0.0, 0.0, 0.008, -0.05, 1.002, 192.0, 0.0, 0.0, 0.0, 0.0, 0.0, 0.0, 0.0, 0.0, 0.0, 1.71516236942572E9, 0.0, 2024-05-08 12:59:29.425
131.0, 7768.706413353255, 0.0, 0.0, 0.0, 0.0, 0.0, 0.0, 0.0, 0.008, -0.05, 1.002, 192.0, 0.0, 0.0, 0.0, 0.0, 0.0, 0.0, 0.0, 0.0, 0.0, 1.7151623694257383E9, 0.0, 2024-05-08 12:59:29.425
132.0, 9982.423184206866, 0.0, 0.0, 0.0, 0.0, 0.0, 0.0, 0.0, 0.008, -0.05, 1.002, 192.0, 0.0, 0.0, 0.0, 0.0, 0.0, 0.0, 0.0, 0.0, 0.0, 1.7151623694257588E9, 0.0, 2024-05-08 12:59:29.425
133.0, 10678.657672245226, 0.0, 0.0, 0.0, 0.0, 0.0, 0.0, 0.0, 0.008, -0.05, 1.002, 192.0, 0.0, 0.0, 0.0, 0.0, 0.0, 0.0, 0.0, 0.0, 0.0, 1.7151623694257772E9, 0.0, 2024-05-08 12:59:29.425
134.0, 10704.228067902097, 0.0, 0.0, 0.0, 0.0, 0.0, 0.0, 0.0, 0.008, -0.05, 1.002, 192.0, 0.0, 0.0, 0.0, 0.0, 0.0, 0.0, 0.0, 0.0, 0.0, 1.7151623694257963E9, 0.0, 2024-05-08 12:59:29.425
135.0, 11863.098962676402, 0.0, 0.0, 0.0, 0.0, 0.0, 0.0, 0.0, 0.008, -0.05, 1.002, 192.0, 0.0, 0.0, 0.0, 0.0, 0.0, 0.0, 0.0, 0.0, 0.0, 1.7151623694258144E9, 0.0, 2024-05-08 12:59:29.425
136.0, 14656.262356789393, 0.0, 0.0, 0.0, 0.0, 0.0, 0.0, 0.0, 0.008, -0.05, 1.002, 192.0, 0.0, 0.0, 0.0, 0.0, 0.0, 0.0, 0.0, 0.0, 0.0, 1.715162369425841E9, 0.0, 2024-05-08 12:59:29.425
137.0, 17299.445545607276, 0.0, 0.0, 0.0, 0.0, 0.0, 0.0, 0.0, 0.008, -0.05, 1.002, 192.0, 0.0, 0.0, 0.0, 0.0, 0.0, 0.0, 0.0, 0.0, 0.0, 1.7151623694258597E9, 0.0, 2024-05-08 12:59:29.425
138.0, 18101.470840152604, 0.0, 0.0, 0.0, 0.0, 0.0, 0.0, 0.0, 0.002, -0.044, 0.994, 192.0, 0.0, 16.0, 254.0, 160.0, 31.0, 16.0, 0.0, 0.0, 0.0, 1.7151623694259448E9, 0.0, 2024-05-08 12:59:29.425
139.0, 18082.9188922547, 0.0, 0.0, 0.0, 0.0, 0.0, 0.0, 0.0, 0.002, -0.044, 0.994, 192.0, 0.0, 0.0, 0.0, 0.0, 0.0, 0.0, 0.0, 0.0, 0.0, 1.7151623694259658E9, 0.0, 2024-05-08 12:59:29.425
140.0, 18935.235611824468, 0.0, 0.0, 0.0, 0.0, 0.0, 0.0, 0.0, 0.002, -0.044, 0.994, 192.0, 0.0, 0.0, 0.0, 0.0, 0.0, 0.0, 0.0, 0.0, 0.0, 1.715162369425983E9, 0.0, 2024-05-08 12:59:29.425
141.0, 20905.56423730424, 0.0, 0.0, 0.0, 0.0, 0.0, 0.0, 0.0, 0.002, -0.044, 0.994, 192.0, 0.0, 0.0, 0.0, 0.0, 0.0, 0.0, 0.0, 0.0, 0.0, 1.7151623694260008E9, 0.0, 2024-05-08 12:59:29.426
142.0, 22438.379816815832, 0.0, 0.0, 0.0, 0.0, 0.0, 0.0, 0.0, 0.002, -0.044, 0.994, 192.0, 0.0, 0.0, 0.0, 0.0, 0.0, 0.0, 0.0, 0.0, 0.0, 1.7151623694260187E9, 0.0, 2024-05-08 12:59:29.426
143.0, 22027.040663604817, 0.0, 0.0, 0.0, 0.0, 0.0, 0.0, 0.0, 0.002, -0.044, 0.994, 192.0, 0.0, 0.0, 0.0, 0.0, 0.0, 0.0, 0.0, 0.0, 0.0, 1.7151623694260361E9, 0.0, 2024-05-08 12:59:29.426
144.0, 20623.328760067077, 0.0, 0.0, 0.0, 0.0, 0.0, 0.0, 0.0, 0.002, -0.044, 0.994, 192.0, 0.0, 0.0, 0.0, 0.0, 0.0, 0.0, 0.0, 0.0, 0.0, 1.7151623694260535E9, 0.0, 2024-05-08 12:59:29.426
145.0, 20122.403815079193, 0.0, 0.0, 0.0, 0.0, 0.0, 0.0, 0.0, 0.002, -0.044, 0.994, 192.0, 0.0, 0.0, 0.0, 0.0, 0.0, 0.0, 0.0, 0.0, 0.0, 1.7151623694260747E9, 0.0, 2024-05-08 12:59:29.426
146.0, 21327.274599942517, 0.0, 0.0, 0.0, 0.0, 0.0, 0.0, 0.0, 0.002, -0.044, 0.994, 192.0, 0.0, 0.0, 0.0, 0.0, 0.0, 0.0, 0.0, 0.0, 0.0, 1.7151623694260924E9, 0.0, 2024-05-08 12:59:29.426
147.0, 22854.122263684545, 0.0, 0.0, 0.0, 0.0, 0.0, 0.0, 0.0, 0.002, -0.044, 0.994, 192.0, 0.0, 0.0, 0.0, 0.0, 0.0, 0.0, 0.0, 0.0, 0.0, 1.7151623694261096E9, 0.0, 2024-05-08 12:59:29.426
148.0, 22879.267976196763, 0.0, 0.0, 0.0, 0.0, 0.0, 0.0, 0.0, 0.006, -0.046, 0.994, 192.0, 0.0, 48.0, 254.0, 144.0, 31.0, 16.0, 0.0, 0.0, 0.0, 1.7151623694261272E9, 0.0, 2024-05-08 12:59:29.426
149.0, 21862.308306969204, 0.0, 0.0, 0.0, 0.0, 0.0, 0.0, 0.0, 0.006, -0.046, 0.994, 192.0, 0.0, 0.0, 0.0, 0.0, 0.0, 0.0, 0.0, 0.0, 0.0, 1.7151623694261472E9, 0.0, 2024-05-08 12:59:29.426
150.0, 21293.344651859363, 0.0, 0.0, 0.0, 0.0, 0.0, 0.0, 0.0, 0.006, -0.046, 0.994, 192.0, 0.0, 0.0, 0.0, 0.0, 0.0, 0.0, 0.0, 0.0, 0.0, 1.7151623694261649E9, 0.0, 2024-05-08 12:59:29.426
151.0, 21645.496385752725, 0.0, 0.0, 0.0, 0.0, 0.0, 0.0, 0.0, 0.006, -0.046, 0.994, 192.0, 0.0, 0.0, 0.0, 0.0, 0.0, 0.0, 0.0, 0.0, 0.0, 1.7151623694261827E9, 0.0, 2024-05-08 12:59:29.426
152.0, 21596.389603184416, 0.0, 0.0, 0.0, 0.0, 0.0, 0.0, 0.0, 0.006, -0.046, 0.994, 192.0, 0.0, 0.0, 0.0, 0.0, 0.0, 0.0, 0.0, 0.0, 0.0, 1.7151623694262028E9, 0.0, 2024-05-08 12:59:29.426
153.0, 19818.218924786917, 0.0, 0.0, 0.0, 0.0, 0.0, 0.0, 0.0, 0.006, -0.046, 0.994, 192.0, 0.0, 0.0, 0.0, 0.0, 0.0, 0.0, 0.0, 0.0, 0.0, 1.7151623694262207E9, 0.0, 2024-05-08 12:59:29.426
154.0, 17091.887246595295, 0.0, 0.0, 0.0, 0.0, 0.0, 0.0, 0.0, 0.006, -0.046, 0.994, 192.0, 0.0, 0.0, 0.0, 0.0, 0.0, 0.0, 0.0, 0.0, 0.0, 1.7151623694262383E9, 0.0, 2024-05-08 12:59:29.426
155.0, 15095.675301036275, 0.0, 0.0, 0.0, 0.0, 0.0, 0.0, 0.0, 0.006, -0.046, 0.994, 192.0, 0.0, 0.0, 0.0, 0.0, 0.0, 0.0, 0.0, 0.0, 0.0, 1.715162369426304E9, 0.0, 2024-05-08 12:59:29.426
156.0, 14453.487331090848, 0.0, 0.0, 0.0, 0.0, 0.0, 0.0, 0.0, 0.006, -0.046, 0.994, 192.0, 0.0, 0.0, 0.0, 0.0, 0.0, 0.0, 0.0, 0.0, 0.0, 1.7151623694263227E9, 0.0, 2024-05-08 12:59:29.426
157.0, 13907.389510558785, 0.0, 0.0, 0.0, 0.0, 0.0, 0.0, 0.0, 0.006, -0.046, 0.994, 192.0, 0.0, 0.0, 0.0, 0.0, 0.0, 0.0, 0.0, 0.0, 0.0, 1.7151623694263415E9, 0.0, 2024-05-08 12:59:29.426
158.0, 11975.148257630857, 0.0, 0.0, 0.0, 0.0, 0.0, 0.0, 0.0, 0.004, -0.04, 0.996, 192.0, 0.0, 32.0, 254.0, 192.0, 31.0, 32.0, 0.0, 0.0, 0.0, 1.7151623694263625E9, 0.0, 2024-05-08 12:59:29.426
159.0, 9296.381091640127, 0.0, 0.0, 0.0, 0.0, 0.0, 0.0, 0.0, 0.004, -0.04, 0.996, 192.0, 0.0, 0.0, 0.0, 0.0, 0.0, 0.0, 0.0, 0.0, 0.0, 1.715162369426384E9, 0.0, 2024-05-08 12:59:29.426
160.0, 7464.409764338704, 0.0, 0.0, 0.0, 0.0, 0.0, 0.0, 0.0, 0.004, -0.04, 0.996, 192.0, 0.0, 0.0, 0.0, 0.0, 0.0, 0.0, 0.0, 0.0, 0.0, 1.7151623694264057E9, 0.0, 2024-05-08 12:59:29.426
161.0, 7062.257178098819, 0.0, 0.0, 0.0, 0.0, 0.0, 0.0, 0.0, 0.004, -0.04, 0.996, 192.0, 0.0, 0.0, 0.0, 0.0, 0.0, 0.0, 0.0, 0.0, 0.0, 1.7151623694264245E9, 0.0, 2024-05-08 12:59:29.426
162.0, 6784.000311374702, 0.0, 0.0, 0.0, 0.0, 0.0, 0.0, 0.0, 0.004, -0.04, 0.996, 192.0, 0.0, 0.0, 0.0, 0.0, 0.0, 0.0, 0.0, 0.0, 0.0, 1.7151623694264436E9, 0.0, 2024-05-08 12:59:29.426
163.0, 5212.180937788598, 0.0, 0.0, 0.0, 0.0, 0.0, 0.0, 0.0, 0.004, -0.04, 0.996, 192.0, 0.0, 0.0, 0.0, 0.0, 0.0, 0.0, 0.0, 0.0, 0.0, 1.7151623694264605E9, 0.0, 2024-05-08 12:59:29.426
164.0, 2929.173759123535, 0.0, 0.0, 0.0, 0.0, 0.0, 0.0, 0.0, 0.004, -0.04, 0.996, 192.0, 0.0, 0.0, 0.0, 0.0, 0.0, 0.0, 0.0, 0.0, 0.0, 1.7151623694264781E9, 0.0, 2024-05-08 12:59:29.426
165.0, 1522.734942762249, 0.0, 0.0, 0.0, 0.0, 0.0, 0.0, 0.0, 0.004, -0.04, 0.996, 192.0, 0.0, 0.0, 0.0, 0.0, 0.0, 0.0, 0.0, 0.0, 0.0, 1.7151623694264998E9, 0.0, 2024-05-08 12:59:29.426
166.0, 1551.3675274094974, 0.0, 0.0, 0.0, 0.0, 0.0, 0.0, 0.0, 0.004, -0.04, 0.996, 192.0, 0.0, 0.0, 0.0, 0.0, 0.0, 0.0, 0.0, 0.0, 0.0, 1.7151623694265175E9, 0.0, 2024-05-08 12:59:29.426
167.0, 1635.8794731950134, 0.0, 0.0, 0.0, 0.0, 0.0, 0.0, 0.0, 0.004, -0.042, 0.992, 192.0, 0.0, 32.0, 254.0, 176.0, 31.0, 0.0, 0.0, 0.0, 0.0, 1.7151623694265356E9, 0.0, 2024-05-08 12:59:29.426
168.0, 394.4188826583484, 0.0, 0.0, 0.0, 0.0, 0.0, 0.0, 0.0, 0.004, -0.042, 0.992, 192.0, 0.0, 0.0, 0.0, 0.0, 0.0, 0.0, 0.0, 0.0, 0.0, 1.7151623694265563E9, 0.0, 2024-05-08 12:59:29.426
169.0, -1593.7464348967594, 0.0, 0.0, 0.0, 0.0, 0.0, 0.0, 0.0, 0.004, -0.042, 0.992, 192.0, 0.0, 0.0, 0.0, 0.0, 0.0, 0.0, 0.0, 0.0, 0.0, 1.7151623694265757E9, 0.0, 2024-05-08 12:59:29.426
170.0, -2752.997309326805, 0.0, 0.0, 0.0, 0.0, 0.0, 0.0, 0.0, 0.004, -0.042, 0.992, 192.0, 0.0, 0.0, 0.0, 0.0, 0.0, 0.0, 0.0, 0.0, 0.0, 1.715162369426596E9, 0.0, 2024-05-08 12:59:29.426
171.0, -2506.5469749625895, 0.0, 0.0, 0.0, 0.0, 0.0, 0.0, 0.0, 0.004, -0.042, 0.992, 192.0, 0.0, 0.0, 0.0, 0.0, 0.0, 0.0, 0.0, 0.0, 0.0, 1.7151623694266253E9, 0.0, 2024-05-08 12:59:29.426
172.0, -2180.055043703919, 0.0, 0.0, 0.0, 0.0, 0.0, 0.0, 0.0, 0.004, -0.042, 0.992, 192.0, 0.0, 0.0, 0.0, 0.0, 0.0, 0.0, 0.0, 0.0, 0.0, 1.715162369426653E9, 0.0, 2024-05-08 12:59:29.426
173.0, -3218.3829806307535, 0.0, 0.0, 0.0, 0.0, 0.0, 0.0, 0.0, 0.004, -0.042, 0.992, 192.0, 0.0, 0.0, 0.0, 0.0, 0.0, 0.0, 0.0, 0.0, 0.0, 1.715162369426692E9, 0.0, 2024-05-08 12:59:29.426
174.0, -5036.786799047804, 0.0, 0.0, 0.0, 0.0, 0.0, 0.0, 0.0, 0.004, -0.042, 0.992, 192.0, 0.0, 0.0, 0.0, 0.0, 0.0, 0.0, 0.0, 0.0, 0.0, 1.7151623694267104E9, 0.0, 2024-05-08 12:59:29.426
175.0, -6051.354831618647, 0.0, 0.0, 0.0, 0.0, 0.0, 0.0, 0.0, 0.004, -0.042, 0.992, 192.0, 0.0, 0.0, 0.0, 0.0, 0.0, 0.0, 0.0, 0.0, 0.0, 1.7151623694267285E9, 0.0, 2024-05-08 12:59:29.426
176.0, -5680.785260294111, 0.0, 0.0, 0.0, 0.0, 0.0, 0.0, 0.0, 0.004, -0.042, 0.992, 192.0, 0.0, 0.0, 0.0, 0.0, 0.0, 0.0, 0.0, 0.0, 0.0, 1.7151623694267457E9, 0.0, 2024-05-08 12:59:29.426
177.0, -5215.1090163122435, 0.0, 0.0, 0.0, 0.0, 0.0, 0.0, 0.0, 0.004, -0.042, 0.992, 192.0, 0.0, 32.0, 254.0, 176.0, 31.0, 0.0, 0.0, 0.0, 0.0, 1.715162369426765E9, 0.0, 2024-05-08 12:59:29.426
178.0, -6126.5237482218445, 0.0, 0.0, 0.0, 0.0, 0.0, 0.0, 0.0, 0.004, -0.042, 0.992, 192.0, 0.0, 0.0, 0.0, 0.0, 0.0, 0.0, 0.0, 0.0, 0.0, 1.7151623694267857E9, 0.0, 2024-05-08 12:59:29.426
179.0, -7842.690687500321, 0.0, 0.0, 0.0, 0.0, 0.0, 0.0, 0.0, 0.004, -0.042, 0.992, 192.0, 0.0, 0.0, 0.0, 0.0, 0.0, 0.0, 0.0, 0.0, 0.0, 1.7151623694268043E9, 0.0, 2024-05-08 12:59:29.426
180.0, -8757.59229154495, 0.0, 0.0, 0.0, 0.0, 0.0, 0.0, 0.0, 0.004, -0.042, 0.992, 192.0, 0.0, 0.0, 0.0, 0.0, 0.0, 0.0, 0.0, 0.0, 0.0, 1.715162369426823E9, 0.0, 2024-05-08 12:59:29.426
181.0, -8275.331053177244, 0.0, 0.0, 0.0, 0.0, 0.0, 0.0, 0.0, 0.004, -0.042, 0.992, 192.0, 0.0, 0.0, 0.0, 0.0, 0.0, 0.0, 0.0, 0.0, 0.0, 1.7151623694268427E9, 0.0, 2024-05-08 12:59:29.426
182.0, -7714.771653982599, 0.0, 0.0, 0.0, 0.0, 0.0, 0.0, 0.0, 0.004, -0.042, 0.992, 192.0, 0.0, 0.0, 0.0, 0.0, 0.0, 0.0, 0.0, 0.0, 0.0, 1.715162369426862E9, 0.0, 2024-05-08 12:59:29.426
183.0, -8546.79298958695, 0.0, 0.0, 0.0, 0.0, 0.0, 0.0, 0.0, 0.004, -0.042, 0.992, 192.0, 0.0, 0.0, 0.0, 0.0, 0.0, 0.0, 0.0, 0.0, 0.0, 1.7151623694268916E9, 0.0, 2024-05-08 12:59:29.426
184.0, -10252.83458862717, 0.0, 0.0, 0.0, 0.0, 0.0, 0.0, 0.0, 0.004, -0.042, 0.992, 192.0, 0.0, 0.0, 0.0, 0.0, 0.0, 0.0, 0.0, 0.0, 0.0, 1.71516236942691E9, 0.0, 2024-05-08 12:59:29.426
185.0, -11188.903294670976, 0.0, 0.0, 0.0, 0.0, 0.0, 0.0, 0.0, 0.004, -0.042, 0.992, 192.0, 0.0, 0.0, 0.0, 0.0, 0.0, 0.0, 0.0, 0.0, 0.0, 1.7151623694269304E9, 0.0, 2024-05-08 12:59:29.426
186.0, -10676.511904777517, 0.0, 0.0, 0.0, 0.0, 0.0, 0.0, 0.0, 0.004, -0.042, 0.992, 192.0, 0.0, 0.0, 0.0, 0.0, 0.0, 0.0, 0.0, 0.0, 0.0, 1.7151623694269488E9, 0.0, 2024-05-08 12:59:29.426
187.0, -9995.45425122431, 0.0, 0.0, 0.0, 0.0, 0.0, 0.0, 0.0, 0.002, -0.046, 0.99, 192.0, 0.0, 16.0, 254.0, 144.0, 30.0, 240.0, 0.0, 0.0, 0.0, 1.7151623694269664E9, 0.0, 2024-05-08 12:59:29.426
188.0, -10690.437041573172, 0.0, 0.0, 0.0, 0.0, 0.0, 0.0, 0.0, 0.002, -0.046, 0.99, 192.0, 0.0, 0.0, 0.0, 0.0, 0.0, 0.0, 0.0, 0.0, 0.0, 1.7151623694269865E9, 0.0, 2024-05-08 12:59:29.426
189.0, -12232.886222945002, 0.0, 0.0, 0.0, 0.0, 0.0, 0.0, 0.0, 0.002, -0.046, 0.99, 192.0, 0.0, 0.0, 0.0, 0.0, 0.0, 0.0, 0.0, 0.0, 0.0, 1.715162369427004E9, 0.0, 2024-05-08 12:59:29.427
190.0, -13020.315828361016, 0.0, 0.0, 0.0, 0.0, 0.0, 0.0, 0.0, 0.002, -0.046, 0.99, 192.0, 0.0, 0.0, 0.0, 0.0, 0.0, 0.0, 0.0, 0.0, 0.0, 1.7151623694270597E9, 0.0, 2024-05-08 12:59:29.427
191.0, -12447.686487160503, 0.0, 0.0, 0.0, 0.0, 0.0, 0.0, 0.0, 0.002, -0.046, 0.99, 192.0, 0.0, 0.0, 0.0, 0.0, 0.0, 0.0, 0.0, 0.0, 0.0, 1.7151623694270816E9, 0.0, 2024-05-08 12:59:29.427
192.0, -11814.729787675118, 0.0, 0.0, 0.0, 0.0, 0.0, 0.0, 0.0, 0.002, -0.046, 0.99, 192.0, 0.0, 0.0, 0.0, 0.0, 0.0, 0.0, 0.0, 0.0, 0.0, 1.715162369427101E9, 0.0, 2024-05-08 12:59:29.427
193.0, -12629.40616958215, 0.0, 0.0, 0.0, 0.0, 0.0, 0.0, 0.0, 0.002, -0.046, 0.99, 192.0, 0.0, 0.0, 0.0, 0.0, 0.0, 0.0, 0.0, 0.0, 0.0, 1.7151623694271195E9, 0.0, 2024-05-08 12:59:29.427
194.0, -14389.918969859955, 0.0, 0.0, 0.0, 0.0, 0.0, 0.0, 0.0, 0.002, -0.046, 0.99, 192.0, 0.0, 0.0, 0.0, 0.0, 0.0, 0.0, 0.0, 0.0, 0.0, 1.7151623694271388E9, 0.0, 2024-05-08 12:59:29.427
195.0, -15423.53068870672, 0.0, 0.0, 0.0, 0.0, 0.0, 0.0, 0.0, 0.002, -0.046, 0.99, 192.0, 0.0, 0.0, 0.0, 0.0, 0.0, 0.0, 0.0, 0.0, 0.0, 1.7151623694271584E9, 0.0, 2024-05-08 12:59:29.427
196.0, -15058.571405240466, 0.0, 0.0, 0.0, 0.0, 0.0, 0.0, 0.0, 0.002, -0.046, 0.99, 192.0, 0.0, 0.0, 0.0, 0.0, 0.0, 0.0, 0.0, 0.0, 0.0, 1.7151623694271784E9, 0.0, 2024-05-08 12:59:29.427
197.0, -14578.45593434047, 0.0, 0.0, 0.0, 0.0, 0.0, 0.0, 0.0, 0.002, -0.046, 0.99, 192.0, 0.0, 0.0, 254.0, 176.0, 30.0, 240.0, 0.0, 0.0, 0.0, 1.7151623694271975E9, 0.0, 2024-05-08 12:59:29.427
198.0, -15494.095145952124, 0.0, 0.0, 0.0, 0.0, 0.0, 0.0, 0.0, 0.002, -0.046, 0.99, 192.0, 0.0, 0.0, 0.0, 0.0, 0.0, 0.0, 0.0, 0.0, 0.0, 1.7151623694272192E9, 0.0, 2024-05-08 12:59:29.427
199.0, -17333.643714623897, 0.0, 0.0, 0.0, 0.0, 0.0, 0.0, 0.0, 0.002, -0.046, 0.99, 192.0, 0.0, 0.0, 0.0, 0.0, 0.0, 0.0, 0.0, 0.0, 0.0, 1.7151623694272375E9, 0.0, 2024-05-08 12:59:29.427
200.0, -18429.192117356317, 0.0, 0.0, 0.0, 0.0, 0.0, 0.0, 0.0, 0.002, -0.046, 0.99, 192.0, 0.0, 0.0, 0.0, 0.0, 0.0, 0.0, 0.0, 0.0, 0.0, 1.7151623694272563E9, 0.0, 2024-05-08 12:59:29.427
201.0, -18163.809855438456, 0.0, 0.0, 0.0, 0.0, 0.0, 0.0, 0.0, 0.002, -0.046, 0.99, 192.0, 0.0, 0.0, 0.0, 0.0, 0.0, 0.0, 0.0, 0.0, 0.0, 1.715162369427274E9, 0.0, 2024-05-08 12:59:29.427
202.0, -17810.875810489157, 0.0, 0.0, 0.0, 0.0, 0.0, 0.0, 0.0, 0.002, -0.046, 0.99, 192.0, 0.0, 0.0, 0.0, 0.0, 0.0, 0.0, 0.0, 0.0, 0.0, 1.715162369427292E9, 0.0, 2024-05-08 12:59:29.427
203.0, -18829.86948846215, 0.0, 0.0, 0.0, 0.0, 0.0, 0.0, 0.0, 0.002, -0.046, 0.99, 192.0, 0.0, 0.0, 0.0, 0.0, 0.0, 0.0, 0.0, 0.0, 0.0, 1.71516236942731E9, 0.0, 2024-05-08 12:59:29.427
204.0, -20807.283616934255, 0.0, 0.0, 0.0, 0.0, 0.0, 0.0, 0.0, 0.002, -0.046, 0.99, 192.0, 0.0, 0.0, 0.0, 0.0, 0.0, 0.0, 0.0, 0.0, 0.0, 1.71516236942733E9, 0.0, 2024-05-08 12:59:29.427
205.0, -22070.760675759397, 0.0, 0.0, 0.0, 0.0, 0.0, 0.0, 0.0, 0.002, -0.046, 0.99, 192.0, 0.0, 0.0, 0.0, 0.0, 0.0, 0.0, 0.0, 0.0, 0.0, 1.715162369427348E9, 0.0, 2024-05-08 12:59:29.427
206.0, -21899.702775442933, 0.0, 0.0, 0.0, 0.0, 0.0, 0.0, 0.0, 0.002, -0.046, 0.99, 192.0, 0.0, 0.0, 0.0, 0.0, 0.0, 0.0, 0.0, 0.0, 0.0, 1.7151623694273703E9, 0.0, 2024-05-08 12:59:29.427
207.0, -21600.971710797752, 0.0, 0.0, 0.0, 0.0, 0.0, 0.0, 0.0, 0.002, -0.04, 0.992, 192.0, 0.0, 16.0, 254.0, 192.0, 31.0, 0.0, 0.0, 0.0, 0.0, 1.7151623694274056E9, 0.0, 2024-05-08 12:59:29.427
208.0, -22478.568253346475, 0.0, 0.0, 0.0, 0.0, 0.0, 0.0, 0.0, 0.002, -0.04, 0.992, 192.0, 0.0, 0.0, 0.0, 0.0, 0.0, 0.0, 0.0, 0.0, 0.0, 1.715162369427425E9, 0.0, 2024-05-08 12:59:29.427
209.0, -24171.042343502326, 0.0, 0.0, 0.0, 0.0, 0.0, 0.0, 0.0, 0.002, -0.04, 0.992, 192.0, 0.0, 0.0, 0.0, 0.0, 0.0, 0.0, 0.0, 0.0, 0.0, 1.7151623694274423E9, 0.0, 2024-05-08 12:59:29.427
210.0, -25147.433596543506, 0.0, 0.0, 0.0, 0.0, 0.0, 0.0, 0.0, 0.002, -0.04, 0.992, 192.0, 0.0, 0.0, 0.0, 0.0, 0.0, 0.0, 0.0, 0.0, 0.0, 1.71516236942746E9, 0.0, 2024-05-08 12:59:29.427
211.0, -24720.783498380602, 0.0, 0.0, 0.0, 0.0, 0.0, 0.0, 0.0, 0.002, -0.04, 0.992, 192.0, 0.0, 0.0, 0.0, 0.0, 0.0, 0.0, 0.0, 0.0, 0.0, 1.7151623694274795E9, 0.0, 2024-05-08 12:59:29.427
212.0, -24283.5833768348, 0.0, 0.0, 0.0, 0.0, 0.0, 0.0, 0.0, 0.002, -0.04, 0.992, 192.0, 0.0, 0.0, 0.0, 0.0, 0.0, 0.0, 0.0, 0.0, 0.0, 1.7151623694274971E9, 0.0, 2024-05-08 12:59:29.427
213.0, -25288.29429010085, 0.0, 0.0, 0.0, 0.0, 0.0, 0.0, 0.0, 0.002, -0.04, 0.992, 192.0, 0.0, 0.0, 0.0, 0.0, 0.0, 0.0, 0.0, 0.0, 0.0, 1.7151623694275143E9, 0.0, 2024-05-08 12:59:29.427
214.0, -27233.119575157118, 0.0, 0.0, 0.0, 0.0, 0.0, 0.0, 0.0, 0.002, -0.04, 0.992, 192.0, 0.0, 0.0, 0.0, 0.0, 0.0, 0.0, 0.0, 0.0, 0.0, 1.7151623694275324E9, 0.0, 2024-05-08 12:59:29.427
215.0, -28394.203292632497, 0.0, 0.0, 0.0, 0.0, 0.0, 0.0, 0.0, 0.002, -0.04, 0.992, 192.0, 0.0, 0.0, 0.0, 0.0, 0.0, 0.0, 0.0, 0.0, 0.0, 1.7151623694275496E9, 0.0, 2024-05-08 12:59:29.427
216.0, -28012.860180480504, 0.0, 0.0, 0.0, 0.0, 0.0, 0.0, 0.0, 0.002, -0.04, 0.992, 192.0, 0.0, 0.0, 0.0, 0.0, 0.0, 0.0, 0.0, 0.0, 0.0, 1.715162369427567E9, 0.0, 2024-05-08 12:59:29.427
217.0, -27273.21860470994, 0.0, 0.0, 0.0, 0.0, 0.0, 0.0, 0.0, 0.008, -0.044, 0.996, 192.0, 0.0, 64.0, 254.0, 160.0, 31.0, 32.0, 0.0, 0.0, 0.0, 1.7151623694275904E9, 0.0, 2024-05-08 12:59:29.427
218.0, -27667.972763535116, 0.0, 0.0, 0.0, 0.0, 0.0, 0.0, 0.0, 0.008, -0.044, 0.996, 192.0, 0.0, 0.0, 0.0, 0.0, 0.0, 0.0, 0.0, 0.0, 0.0, 1.7151623694276133E9, 0.0, 2024-05-08 12:59:29.427
219.0, -29007.73632618622, 0.0, 0.0, 0.0, 0.0, 0.0, 0.0, 0.0, 0.008, -0.044, 0.996, 192.0, 0.0, 0.0, 0.0, 0.0, 0.0, 0.0, 0.0, 0.0, 0.0, 1.7151623694276347E9, 0.0, 2024-05-08 12:59:29.427
220.0, -29596.749496072473, 0.0, 0.0, 0.0, 0.0, 0.0, 0.0, 0.0, 0.008, -0.044, 0.996, 192.0, 0.0, 0.0, 0.0, 0.0, 0.0, 0.0, 0.0, 0.0, 0.0, 1.715162369427656E9, 0.0, 2024-05-08 12:59:29.427
221.0, -28878.85616765692, 0.0, 0.0, 0.0, 0.0, 0.0, 0.0, 0.0, 0.008, -0.044, 0.996, 192.0, 0.0, 0.0, 0.0, 0.0, 0.0, 0.0, 0.0, 0.0, 0.0, 1.7151623694276776E9, 0.0, 2024-05-08 12:59:29.427
222.0, -27895.290004645587, 0.0, 0.0, 0.0, 0.0, 0.0, 0.0, 0.0, 0.008, -0.044, 0.996, 192.0, 0.0, 0.0, 0.0, 0.0, 0.0, 0.0, 0.0, 0.0, 0.0, 1.7151623694276989E9, 0.0, 2024-05-08 12:59:29.427
223.0, -28120.975568410824, 0.0, 0.0, 0.0, 0.0, 0.0, 0.0, 0.0, 0.008, -0.044, 0.996, 192.0, 0.0, 0.0, 0.0, 0.0, 0.0, 0.0, 0.0, 0.0, 0.0, 1.7151623694277203E9, 0.0, 2024-05-08 12:59:29.427
224.0, -29110.621405914, 0.0, 0.0, 0.0, 0.0, 0.0, 0.0, 0.0, 0.008, -0.044, 0.996, 192.0, 0.0, 0.0, 0.0, 0.0, 0.0, 0.0, 0.0, 0.0, 0.0, 1.7151623694277437E9, 0.0, 2024-05-08 12:59:29.427
225.0, -29261.428625753957, 0.0, 0.0, 0.0, 0.0, 0.0, 0.0, 0.0, 0.008, -0.044, 0.996, 192.0, 0.0, 0.0, 0.0, 0.0, 0.0, 0.0, 0.0, 0.0, 0.0, 1.7151623694277852E9, 0.0, 2024-05-08 12:59:29.427
226.0, -28044.622009351497, 0.0, 0.0, 0.0, 0.0, 0.0, 0.0, 0.0, 0.008, -0.044, 0.996, 192.0, 0.0, 0.0, 0.0, 0.0, 0.0, 0.0, 0.0, 0.0, 0.0, 1.7151623694278069E9, 0.0, 2024-05-08 12:59:29.427
227.0, -26688.18404533673, 0.0, 0.0, 0.0, 0.0, 0.0, 0.0, 0.0, 0.004, -0.042, 0.996, 192.0, 0.0, 32.0, 254.0, 176.0, 31.0, 32.0, 0.0, 0.0, 0.0, 1.715162369427837E9, 0.0, 2024-05-08 12:59:29.427
228.0, -26596.251320392053, 0.0, 0.0, 0.0, 0.0, 0.0, 0.0, 0.0, 0.004, -0.042, 0.996, 192.0, 0.0, 0.0, 0.0, 0.0, 0.0, 0.0, 0.0, 0.0, 0.0, 1.7151623694278595E9, 0.0, 2024-05-08 12:59:29.427
229.0, -27428.04913855185, 0.0, 0.0, 0.0, 0.0, 0.0, 0.0, 0.0, 0.004, -0.042, 0.996, 192.0, 0.0, 0.0, 0.0, 0.0, 0.0, 0.0, 0.0, 0.0, 0.0, 1.7151623694278812E9, 0.0, 2024-05-08 12:59:29.427
230.0, -27581.091532837338, 0.0, 0.0, 0.0, 0.0, 0.0, 0.0, 0.0, 0.004, -0.042, 0.996, 192.0, 0.0, 0.0, 0.0, 0.0, 0.0, 0.0, 0.0, 0.0, 0.0, 1.7151623694279027E9, 0.0, 2024-05-08 12:59:29.427
231.0, -26422.153582829666, 0.0, 0.0, 0.0, 0.0, 0.0, 0.0, 0.0, 0.004, -0.042, 0.996, 192.0, 0.0, 0.0, 0.0, 0.0, 0.0, 0.0, 0.0, 0.0, 0.0, 1.715162369427926E9, 0.0, 2024-05-08 12:59:29.427
232.0, -25130.938009135487, 0.0, 0.0, 0.0, 0.0, 0.0, 0.0, 0.0, 0.004, -0.042, 0.996, 192.0, 0.0, 0.0, 0.0, 0.0, 0.0, 0.0, 0.0, 0.0, 0.0, 1.7151623694279473E9, 0.0, 2024-05-08 12:59:29.427
233.0, -25117.705776417944, 0.0, 0.0, 0.0, 0.0, 0.0, 0.0, 0.0, 0.004, -0.042, 0.996, 192.0, 0.0, 0.0, 0.0, 0.0, 0.0, 0.0, 0.0, 0.0, 0.0, 1.7151623694279687E9, 0.0, 2024-05-08 12:59:29.427
234.0, -26069.890090214027, 0.0, 0.0, 0.0, 0.0, 0.0, 0.0, 0.0, 0.004, -0.042, 0.996, 192.0, 0.0, 0.0, 0.0, 0.0, 0.0, 0.0, 0.0, 0.0, 0.0, 1.7151623694279904E9, 0.0, 2024-05-08 12:59:29.427
235.0, -26382.523939910407, 0.0, 0.0, 0.0, 0.0, 0.0, 0.0, 0.0, 0.004, -0.042, 0.996, 192.0, 0.0, 0.0, 0.0, 0.0, 0.0, 0.0, 0.0, 0.0, 0.0, 1.715162369428012E9, 0.0, 2024-05-08 12:59:29.428
236.0, -25376.851901632777, 0.0, 0.0, 0.0, 0.0, 0.0, 0.0, 0.0, 0.004, -0.042, 0.996, 192.0, 0.0, 0.0, 0.0, 0.0, 0.0, 0.0, 0.0, 0.0, 0.0, 1.7151623694280336E9, 0.0, 2024-05-08 12:59:29.428
237.0, -24255.308420098834, 0.0, 0.0, 0.0, 0.0, 0.0, 0.0, 0.0, 0.002, -0.042, 0.994, 192.0, 0.0, 16.0, 254.0, 176.0, 31.0, 16.0, 0.0, 0.0, 0.0, 1.7151623694280567E9, 0.0, 2024-05-08 12:59:29.428
238.0, -24401.377070114264, 0.0, 0.0, 0.0, 0.0, 0.0, 0.0, 0.0, 0.002, -0.042, 0.994, 192.0, 0.0, 0.0, 0.0, 0.0, 0.0, 0.0, 0.0, 0.0, 0.0, 1.7151623694280791E9, 0.0, 2024-05-08 12:59:29.428
239.0, -25518.450202757147, 0.0, 0.0, 0.0, 0.0, 0.0, 0.0, 0.0, 0.002, -0.042, 0.994, 192.0, 0.0, 0.0, 0.0, 0.0, 0.0, 0.0, 0.0, 0.0, 0.0, 1.7151623694281008E9, 0.0, 2024-05-08 12:59:29.428
240.0, -26021.364453001555, 0.0, 0.0, 0.0, 0.0, 0.0, 0.0, 0.0, 0.002, -0.042, 0.994, 192.0, 0.0, 0.0, 0.0, 0.0, 0.0, 0.0, 0.0, 0.0, 0.0, 1.715162369428122E9, 0.0, 2024-05-08 12:59:29.428
241.0, -25189.477227863936, 0.0, 0.0, 0.0, 0.0, 0.0, 0.0, 0.0, 0.002, -0.042, 0.994, 192.0, 0.0, 0.0, 0.0, 0.0, 0.0, 0.0, 0.0, 0.0, 0.0, 1.7151623694281433E9, 0.0, 2024-05-08 12:59:29.428
242.0, -23974.12347485107, 0.0, 0.0, 0.0, 0.0, 0.0, 0.0, 0.0, 0.002, -0.042, 0.994, 192.0, 0.0, 0.0, 0.0, 0.0, 0.0, 0.0, 0.0, 0.0, 0.0, 1.715162369905914E9, 0.0, 2024-05-08 12:59:29.905
243.0, -23708.31652978856, 0.0, 0.0, 0.0, 0.0, 0.0, 0.0, 0.0, 0.002, -0.042, 0.994, 192.0, 0.0, 0.0, 0.0, 0.0, 0.0, 0.0, 0.0, 0.0, 0.0, 1.7151623699059875E9, 0.0, 2024-05-08 12:59:29.905
244.0, -24137.179450652537, 0.0, 0.0, 0.0, 0.0, 0.0, 0.0, 0.0, 0.002, -0.042, 0.994, 192.0, 0.0, 0.0, 0.0, 0.0, 0.0, 0.0, 0.0, 0.0, 0.0, 1.7151623699060228E9, 0.0, 2024-05-08 12:59:29.906
245.0, -23863.14706363047, 0.0, 0.0, 0.0, 0.0, 0.0, 0.0, 0.0, 0.002, -0.042, 0.994, 192.0, 0.0, 0.0, 0.0, 0.0, 0.0, 0.0, 0.0, 0.0, 0.0, 1.7151623699060493E9, 0.0, 2024-05-08 12:59:29.906
246.0, -22258.13534952824, 0.0, 0.0, 0.0, 0.0, 0.0, 0.0, 0.0, 0.002, -0.042, 0.994, 192.0, 0.0, 0.0, 0.0, 0.0, 0.0, 0.0, 0.0, 0.0, 0.0, 1.7151623699060752E9, 0.0, 2024-05-08 12:59:29.906
247.0, -20442.95018231275, 0.0, 0.0, 0.0, 0.0, 0.0, 0.0, 0.0, 0.004, -0.046, 0.996, 192.0, 0.0, 32.0, 254.0, 144.0, 31.0, 32.0, 0.0, 0.0, 0.0, 1.7151623699060903E9, 0.0, 2024-05-08 12:59:29.906
248.0, -19652.8383675621, 0.0, 0.0, 0.0, 0.0, 0.0, 0.0, 0.0, 0.004, -0.046, 0.996, 192.0, 0.0, 0.0, 0.0, 0.0, 0.0, 0.0, 0.0, 0.0, 0.0, 1.7151623699061084E9, 0.0, 2024-05-08 12:59:29.906
249.0, -19615.488602577283, 0.0, 0.0, 0.0, 0.0, 0.0, 0.0, 0.0, 0.004, -0.046, 0.996, 192.0, 0.0, 0.0, 0.0, 0.0, 0.0, 0.0, 0.0, 0.0, 0.0, 1.715162369906124E9, 0.0, 2024-05-08 12:59:29.906
250.0, -18847.25914564838, 0.0, 0.0, 0.0, 0.0, 0.0, 0.0, 0.0, 0.004, -0.046, 0.996, 192.0, 0.0, 0.0, 0.0, 0.0, 0.0, 0.0, 0.0, 0.0, 0.0, 1.7151623699061408E9, 0.0, 2024-05-08 12:59:29.906
251.0, -16714.16511704506, 0.0, 0.0, 0.0, 0.0, 0.0, 0.0, 0.0, 0.004, -0.046, 0.996, 192.0, 0.0, 0.0, 0.0, 0.0, 0.0, 0.0, 0.0, 0.0, 0.0, 1.7151623699061568E9, 0.0, 2024-05-08 12:59:29.906
252.0, -14333.749036043768, 0.0, 0.0, 0.0, 0.0, 0.0, 0.0, 0.0, 0.004, -0.046, 0.996, 192.0, 0.0, 0.0, 0.0, 0.0, 0.0, 0.0, 0.0, 0.0, 0.0, 1.715162369906171E9, 0.0, 2024-05-08 12:59:29.906
253.0, -13000.601589751433, 0.0, 0.0, 0.0, 0.0, 0.0, 0.0, 0.0, 0.004, -0.046, 0.996, 192.0, 0.0, 0.0, 0.0, 0.0, 0.0, 0.0, 0.0, 0.0, 0.0, 1.7151623699061863E9, 0.0, 2024-05-08 12:59:29.906
254.0, -12468.004222870377, 0.0, 0.0, 0.0, 0.0, 0.0, 0.0, 0.0, 0.004, -0.046, 0.996, 192.0, 0.0, 0.0, 0.0, 0.0, 0.0, 0.0, 0.0, 0.0, 0.0, 1.7151623699062035E9, 0.0, 2024-05-08 12:59:29.906
255.0, -11276.388022469047, 0.0, 0.0, 0.0, 0.0, 0.0, 0.0, 0.0, 0.004, -0.046, 0.996, 192.0, 0.0, 0.0, 0.0, 0.0, 0.0, 0.0, 0.0, 0.0, 0.0, 1.7151623699062188E9, 0.0, 2024-05-08 12:59:29.906
0.0, -8796.081995496988, 0.0, 0.0, 0.0, 0.0, 0.0, 0.0, 0.0, 0.004, -0.046, 0.996, 192.0, 0.0, 0.0, 0.0, 0.0, 0.0, 0.0, 0.0, 0.0, 0.0, 1.7151623699062335E9, 0.0, 2024-05-08 12:59:29.906
1.0, -5891.964541907852, 0.0, 0.0, 0.0, 0.0, 0.0, 0.0, 0.0, 0.002, -0.048, 0.998, 192.0, 0.0, 16.0, 254.0, 128.0, 31.0, 48.0, 0.0, 0.0, 0.0, 1.7151623699062512E9, 0.0, 2024-05-08 12:59:29.906
2.0, -3583.632836774926, 0.0, 0.0, 0.0, 0.0, 0.0, 0.0, 0.0, 0.002, -0.048, 0.998, 192.0, 0.0, 0.0, 0.0, 0.0, 0.0, 0.0, 0.0, 0.0, 0.0, 1.7151623699062672E9, 0.0, 2024-05-08 12:59:29.906
3.0, -1913.9575259634885, 0.0, 0.0, 0.0, 0.0, 0.0, 0.0, 0.0, 0.002, -0.048, 0.998, 192.0, 0.0, 0.0, 0.0, 0.0, 0.0, 0.0, 0.0, 0.0, 0.0, 1.715162369906282E9, 0.0, 2024-05-08 12:59:29.906
4.0, 124.94625150516649, 0.0, 0.0, 0.0, 0.0, 0.0, 0.0, 0.0, 0.002, -0.048, 0.998, 192.0, 0.0, 0.0, 0.0, 0.0, 0.0, 0.0, 0.0, 0.0, 0.0, 1.7151623699063869E9, 0.0, 2024-05-08 12:59:29.906
5.0, 2878.7705753768178, 0.0, 0.0, 0.0, 0.0, 0.0, 0.0, 0.0, 0.002, -0.048, 0.998, 192.0, 0.0, 0.0, 0.0, 0.0, 0.0, 0.0, 0.0, 0.0, 0.0, 1.7151623699064012E9, 0.0, 2024-05-08 12:59:29.906
6.0, 5340.301137006419, 0.0, 0.0, 0.0, 0.0, 0.0, 0.0, 0.0, 0.002, -0.048, 0.998, 192.0, 0.0, 0.0, 0.0, 0.0, 0.0, 0.0, 0.0, 0.0, 0.0, 1.7151623699064157E9, 0.0, 2024-05-08 12:59:29.906
7.0, 6432.183853648169, 0.0, 0.0, 0.0, 0.0, 0.0, 0.0, 0.0, 0.002, -0.048, 0.998, 192.0, 0.0, 0.0, 0.0, 0.0, 0.0, 0.0, 0.0, 0.0, 0.0, 1.7151623699064317E9, 0.0, 2024-05-08 12:59:29.906
8.0, 6267.026813867905, 0.0, 0.0, 0.0, 0.0, 0.0, 0.0, 0.0, 0.002, -0.048, 0.998, 192.0, 0.0, 0.0, 0.0, 0.0, 0.0, 0.0, 0.0, 0.0, 0.0, 1.7151623699064455E9, 0.0, 2024-05-08 12:59:29.906
9.0, 6201.178574702571, 0.0, 0.0, 0.0, 0.0, 0.0, 0.0, 0.0, 0.002, -0.048, 0.998, 192.0, 0.0, 0.0, 0.0, 0.0, 0.0, 0.0, 0.0, 0.0, 0.0, 1.7151623699064598E9, 0.0, 2024-05-08 12:59:29.906
10.0, 6907.896030890469, 0.0, 0.0, 0.0, 0.0, 0.0, 0.0, 0.0, 0.002, -0.048, 0.998, 192.0, 0.0, 0.0, 0.0, 0.0, 0.0, 0.0, 0.0, 0.0, 0.0, 1.7151623699064736E9, 0.0, 2024-05-08 12:59:29.906
11.0, 7601.068329938452, 0.0, 0.0, 0.0, 0.0, 0.0, 0.0, 0.0, 0.004, -0.044, 0.992, 192.0, 0.0, 32.0, 254.0, 160.0, 31.0, 0.0, 0.0, 0.0, 0.0, 1.7151623699064877E9, 0.0, 2024-05-08 12:59:29.906
12.0, 7585.600922775379, 0.0, 0.0, 0.0, 0.0, 0.0, 0.0, 0.0, 0.004, -0.044, 0.992, 192.0, 0.0, 0.0, 0.0, 0.0, 0.0, 0.0, 0.0, 0.0, 0.0, 1.7151623699065025E9, 0.0, 2024-05-08 12:59:29.906
13.0, 7913.5680691681, 0.0, 0.0, 0.0, 0.0, 0.0, 0.0, 0.0, 0.004, -0.044, 0.992, 192.0, 0.0, 0.0, 0.0, 0.0, 0.0, 0.0, 0.0, 0.0, 0.0, 1.715162369906516E9, 0.0, 2024-05-08 12:59:29.906
14.0, 9605.57277269039, 0.0, 0.0, 0.0, 0.0, 0.0, 0.0, 0.0, 0.004, -0.044, 0.992, 192.0, 0.0, 0.0, 0.0, 0.0, 0.0, 0.0, 0.0, 0.0, 0.0, 1.7151623699065318E9, 0.0, 2024-05-08 12:59:29.906
15.0, 12541.899090039622, 0.0, 0.0, 0.0, 0.0, 0.0, 0.0, 0.0, 0.004, -0.044, 0.992, 192.0, 0.0, 0.0, 0.0, 0.0, 0.0, 0.0, 0.0, 0.0, 0.0, 1.715162369906546E9, 0.0, 2024-05-08 12:59:29.906
16.0, 15247.264831932169, 0.0, 0.0, 0.0, 0.0, 0.0, 0.0, 0.0, 0.004, -0.044, 0.992, 192.0, 0.0, 0.0, 0.0, 0.0, 0.0, 0.0, 0.0, 0.0, 0.0, 1.71516236990656E9, 0.0, 2024-05-08 12:59:29.906
17.0, 16449.140483038485, 0.0, 0.0, 0.0, 0.0, 0.0, 0.0, 0.0, 0.004, -0.044, 0.992, 192.0, 0.0, 0.0, 0.0, 0.0, 0.0, 0.0, 0.0, 0.0, 0.0, 1.715162369906574E9, 0.0, 2024-05-08 12:59:29.906
18.0, 16328.306952513094, 0.0, 0.0, 0.0, 0.0, 0.0, 0.0, 0.0, 0.004, -0.044, 0.992, 192.0, 0.0, 0.0, 0.0, 0.0, 0.0, 0.0, 0.0, 0.0, 0.0, 1.7151623699065878E9, 0.0, 2024-05-08 12:59:29.906
19.0, 16384.521589818192, 0.0, 0.0, 0.0, 0.0, 0.0, 0.0, 0.0, 0.004, -0.044, 0.992, 192.0, 0.0, 0.0, 0.0, 0.0, 0.0, 0.0, 0.0, 0.0, 0.0, 1.715162369906606E9, 0.0, 2024-05-08 12:59:29.906
20.0, 17225.953009838227, 0.0, 0.0, 0.0, 0.0, 0.0, 0.0, 0.0, 0.004, -0.044, 0.992, 192.0, 0.0, 0.0, 0.0, 0.0, 0.0, 0.0, 0.0, 0.0, 0.0, 1.71516236990662E9, 0.0, 2024-05-08 12:59:29.906
21.0, 17990.405021954182, 0.0, 0.0, 0.0, 0.0, 0.0, 0.0, 0.0, -0.002, -0.044, 0.992, 192.0, 255.0, 240.0, 254.0, 160.0, 31.0, 0.0, 0.0, 0.0, 0.0, 1.7151623699066465E9, 0.0, 2024-05-08 12:59:29.906
22.0, 17664.896567451546, 0.0, 0.0, 0.0, 0.0, 0.0, 0.0, 0.0, -0.002, -0.044, 0.992, 192.0, 0.0, 0.0, 0.0, 0.0, 0.0, 0.0, 0.0, 0.0, 0.0, 1.7151623699066615E9, 0.0, 2024-05-08 12:59:29.906
23.0, 16382.219360139296, 0.0, 0.0, 0.0, 0.0, 0.0, 0.0, 0.0, -0.002, -0.044, 0.992, 192.0, 0.0, 0.0, 0.0, 0.0, 0.0, 0.0, 0.0, 0.0, 0.0, 1.7151623699066756E9, 0.0, 2024-05-08 12:59:29.906
24.0, 15411.304284489666, 0.0, 0.0, 0.0, 0.0, 0.0, 0.0, 0.0, -0.002, -0.044, 0.992, 192.0, 0.0, 0.0, 0.0, 0.0, 0.0, 0.0, 0.0, 0.0, 0.0, 1.7151623699066896E9, 0.0, 2024-05-08 12:59:29.906
25.0, 15407.99622631028, 0.0, 0.0, 0.0, 0.0, 0.0, 0.0, 0.0, -0.002, -0.044, 0.992, 192.0, 0.0, 0.0, 0.0, 0.0, 0.0, 0.0, 0.0, 0.0, 0.0, 1.7151623699067032E9, 0.0, 2024-05-08 12:59:29.906
26.0, 15681.156895298589, 0.0, 0.0, 0.0, 0.0, 0.0, 0.0, 0.0, -0.002, -0.044, 0.992, 192.0, 0.0, 0.0, 0.0, 0.0, 0.0, 0.0, 0.0, 0.0, 0.0, 1.7151623699067173E9, 0.0, 2024-05-08 12:59:29.906
27.0, 15372.769877048717, 0.0, 0.0, 0.0, 0.0, 0.0, 0.0, 0.0, -0.002, -0.044, 0.992, 192.0, 0.0, 0.0, 0.0, 0.0, 0.0, 0.0, 0.0, 0.0, 0.0, 1.7151623699067328E9, 0.0, 2024-05-08 12:59:29.906
28.0, 14807.449556285092, 0.0, 0.0, 0.0, 0.0, 0.0, 0.0, 0.0, -0.002, -0.044, 0.992, 192.0, 0.0, 0.0, 0.0, 0.0, 0.0, 0.0, 0.0, 0.0, 0.0, 1.7151623699067469E9, 0.0, 2024-05-08 12:59:29.906
29.0, 13159.343678873025, 0.0, 0.0, 0.0, 0.0, 0.0, 0.0, 0.0, -0.002, -0.044, 0.992, 192.0, 0.0, 0.0, 0.0, 0.0, 0.0, 0.0, 0.0, 0.0, 0.0, 1.715162369906761E9, 0.0, 2024-05-08 12:59:29.906
30.0, 11755.832941035384, 0.0, 0.0, 0.0, 0.0, 0.0, 0.0, 0.0, -0.002, -0.044, 0.992, 192.0, 0.0, 0.0, 0.0, 0.0, 0.0, 0.0, 0.0, 0.0, 0.0, 1.7151623699067752E9, 0.0, 2024-05-08 12:59:29.906
31.0, 11302.181935570472, 0.0, 0.0, 0.0, 0.0, 0.0, 0.0, 0.0, 0.004, -0.044, 0.998, 192.0, 0.0, 32.0, 254.0, 160.0, 31.0, 48.0, 0.0, 0.0, 0.0, 1.715162369906789E9, 0.0, 2024-05-08 12:59:29.906
32.0, 9952.069515236559, 0.0, 0.0, 0.0, 0.0, 0.0, 0.0, 0.0, 0.004, -0.044, 0.998, 192.0, 0.0, 0.0, 0.0, 0.0, 0.0, 0.0, 0.0, 0.0, 0.0, 1.7151623699068036E9, 0.0, 2024-05-08 12:59:29.906
33.0, 7824.742236702709, 0.0, 0.0, 0.0, 0.0, 0.0, 0.0, 0.0, 0.004, -0.044, 0.998, 192.0, 0.0, 0.0, 0.0, 0.0, 0.0, 0.0, 0.0, 0.0, 0.0, 1.7151623699068177E9, 0.0, 2024-05-08 12:59:29.906
34.0, 6278.247389584469, 0.0, 0.0, 0.0, 0.0, 0.0, 0.0, 0.0, 0.004, -0.044, 0.998, 192.0, 0.0, 0.0, 0.0, 0.0, 0.0, 0.0, 0.0, 0.0, 0.0, 1.7151623699068332E9, 0.0, 2024-05-08 12:59:29.906
35.0, 5471.37176649234, 0.0, 0.0, 0.0, 0.0, 0.0, 0.0, 0.0, 0.004, -0.044, 0.998, 192.0, 0.0, 0.0, 0.0, 0.0, 0.0, 0.0, 0.0, 0.0, 0.0, 1.7151623699068472E9, 0.0, 2024-05-08 12:59:29.906
36.0, 4409.909774054262, 0.0, 0.0, 0.0, 0.0, 0.0, 0.0, 0.0, 0.004, -0.044, 0.998, 192.0, 0.0, 0.0, 0.0, 0.0, 0.0, 0.0, 0.0, 0.0, 0.0, 1.7151623699068613E9, 0.0, 2024-05-08 12:59:29.906
37.0, 2695.4415673543895, 0.0, 0.0, 0.0, 0.0, 0.0, 0.0, 0.0, 0.004, -0.044, 0.998, 192.0, 0.0, 0.0, 0.0, 0.0, 0.0, 0.0, 0.0, 0.0, 0.0, 1.715162369906875E9, 0.0, 2024-05-08 12:59:29.906
38.0, 567.5107917202463, 0.0, 0.0, 0.0, 0.0, 0.0, 0.0, 0.0, 0.004, -0.044, 0.998, 192.0, 0.0, 0.0, 0.0, 0.0, 0.0, 0.0, 0.0, 0.0, 0.0, 1.7151623699068887E9, 0.0, 2024-05-08 12:59:29.906
39.0, -1429.0811334945124, 0.0, 0.0, 0.0, 0.0, 0.0, 0.0, 0.0, 0.004, -0.044, 0.998, 192.0, 0.0, 0.0, 0.0, 0.0, 0.0, 0.0, 0.0, 0.0, 0.0, 1.7151623699069104E9, 0.0, 2024-05-08 12:59:29.906
40.0, -2534.4419520428123, 0.0, 0.0, 0.0, 0.0, 0.0, 0.0, 0.0, 0.004, -0.044, 0.998, 192.0, 0.0, 0.0, 0.0, 0.0, 0.0, 0.0, 0.0, 0.0, 0.0, 1.715162369906926E9, 0.0, 2024-05-08 12:59:29.906
41.0, -3320.552804535962, 0.0, 0.0, 0.0, 0.0, 0.0, 0.0, 0.0, 0.002, -0.05, 0.996, 192.0, 0.0, 16.0, 254.0, 112.0, 31.0, 32.0, 0.0, 0.0, 0.0, 1.71516236990694E9, 0.0, 2024-05-08 12:59:29.906
42.0, -4478.104946387404, 0.0, 0.0, 0.0, 0.0, 0.0, 0.0, 0.0, 0.002, -0.05, 0.996, 192.0, 0.0, 0.0, 0.0, 0.0, 0.0, 0.0, 0.0, 0.0, 0.0, 1.7151623699069548E9, 0.0, 2024-05-08 12:59:29.906
43.0, -6271.027776125405, 0.0, 0.0, 0.0, 0.0, 0.0, 0.0, 0.0, 0.002, -0.05, 0.996, 192.0, 0.0, 0.0, 0.0, 0.0, 0.0, 0.0, 0.0, 0.0, 0.0, 1.7151623699069688E9, 0.0, 2024-05-08 12:59:29.906
44.0, -7606.231582907628, 0.0, 0.0, 0.0, 0.0, 0.0, 0.0, 0.0, 0.002, -0.05, 0.996, 192.0, 0.0, 0.0, 0.0, 0.0, 0.0, 0.0, 0.0, 0.0, 0.0, 1.715162369906983E9, 0.0, 2024-05-08 12:59:29.906
45.0, -8115.4043215995225, 0.0, 0.0, 0.0, 0.0, 0.0, 0.0, 0.0, 0.002, -0.05, 0.996, 192.0, 0.0, 0.0, 0.0, 0.0, 0.0, 0.0, 0.0, 0.0, 0.0, 1.7151623699069965E9, 0.0, 2024-05-08 12:59:29.906
46.0, -8223.184433363012, 0.0, 0.0, 0.0, 0.0, 0.0, 0.0, 0.0, 0.002, -0.05, 0.996, 192.0, 0.0, 0.0, 0.0, 0.0, 0.0, 0.0, 0.0, 0.0, 0.0, 1.7151623699070103E9, 0.0, 2024-05-08 12:59:29.907
47.0, -8789.287065182574, 0.0, 0.0, 0.0, 0.0, 0.0, 0.0, 0.0, 0.002, -0.05, 0.996, 192.0, 0.0, 0.0, 0.0, 0.0, 0.0, 0.0, 0.0, 0.0, 0.0, 1.715162369907026E9, 0.0, 2024-05-08 12:59:29.907
48.0, -10113.203241014868, 0.0, 0.0, 0.0, 0.0, 0.0, 0.0, 0.0, 0.002, -0.05, 0.996, 192.0, 0.0, 0.0, 0.0, 0.0, 0.0, 0.0, 0.0, 0.0, 0.0, 1.71516236990704E9, 0.0, 2024-05-08 12:59:29.907
49.0, -11363.939805500486, 0.0, 0.0, 0.0, 0.0, 0.0, 0.0, 0.0, 0.002, -0.05, 0.996, 192.0, 0.0, 0.0, 0.0, 0.0, 0.0, 0.0, 0.0, 0.0, 0.0, 1.7151623699070537E9, 0.0, 2024-05-08 12:59:29.907
50.0, -11981.831429222993, 0.0, 0.0, 0.0, 0.0, 0.0, 0.0, 0.0, 0.002, -0.05, 0.996, 192.0, 0.0, 0.0, 0.0, 0.0, 0.0, 0.0, 0.0, 0.0, 0.0, 1.7151623699070678E9, 0.0, 2024-05-08 12:59:29.907
51.0, -12683.430335930627, 0.0, 0.0, 0.0, 0.0, 0.0, 0.0, 0.0, 0.002, -0.05, 0.996, 192.0, 0.0, 0.0, 254.0, 160.0, 31.0, 0.0, 0.0, 0.0, 0.0, 1.7151623699070816E9, 0.0, 2024-05-08 12:59:29.907
52.0, -14091.232608703687, 0.0, 0.0, 0.0, 0.0, 0.0, 0.0, 0.0, 0.002, -0.05, 0.996, 192.0, 0.0, 0.0, 0.0, 0.0, 0.0, 0.0, 0.0, 0.0, 0.0, 1.715162369907096E9, 0.0, 2024-05-08 12:59:29.907
53.0, -16151.594060849437, 0.0, 0.0, 0.0, 0.0, 0.0, 0.0, 0.0, 0.002, -0.05, 0.996, 192.0, 0.0, 0.0, 0.0, 0.0, 0.0, 0.0, 0.0, 0.0, 0.0, 1.7151623699071116E9, 0.0, 2024-05-08 12:59:29.907
54.0, -17872.81249437481, 0.0, 0.0, 0.0, 0.0, 0.0, 0.0, 0.0, 0.002, -0.05, 0.996, 192.0, 0.0, 0.0, 0.0, 0.0, 0.0, 0.0, 0.0, 0.0, 0.0, 1.7151623699071255E9, 0.0, 2024-05-08 12:59:29.907
55.0, -18655.3023642662, 0.0, 0.0, 0.0, 0.0, 0.0, 0.0, 0.0, 0.002, -0.05, 0.996, 192.0, 0.0, 0.0, 0.0, 0.0, 0.0, 0.0, 0.0, 0.0, 0.0, 1.7151623699071393E9, 0.0, 2024-05-08 12:59:29.907
56.0, -19032.264534504957, 0.0, 0.0, 0.0, 0.0, 0.0, 0.0, 0.0, 0.002, -0.05, 0.996, 192.0, 0.0, 0.0, 0.0, 0.0, 0.0, 0.0, 0.0, 0.0, 0.0, 1.7151623699071608E9, 0.0, 2024-05-08 12:59:29.907
57.0, -19889.7445070439, 0.0, 0.0, 0.0, 0.0, 0.0, 0.0, 0.0, 0.002, -0.05, 0.996, 192.0, 0.0, 0.0, 0.0, 0.0, 0.0, 0.0, 0.0, 0.0, 0.0, 1.7151623699071748E9, 0.0, 2024-05-08 12:59:29.907
58.0, -21343.27844897252, 0.0, 0.0, 0.0, 0.0, 0.0, 0.0, 0.0, 0.002, -0.05, 0.996, 192.0, 0.0, 0.0, 0.0, 0.0, 0.0, 0.0, 0.0, 0.0, 0.0, 1.7151623699071884E9, 0.0, 2024-05-08 12:59:29.907
59.0, -22567.79641721206, 0.0, 0.0, 0.0, 0.0, 0.0, 0.0, 0.0, 0.002, -0.05, 0.996, 192.0, 0.0, 0.0, 0.0, 0.0, 0.0, 0.0, 0.0, 0.0, 0.0, 1.7151623699072025E9, 0.0, 2024-05-08 12:59:29.907
60.0, -22925.401976752517, 0.0, 0.0, 0.0, 0.0, 0.0, 0.0, 0.0, 0.002, -0.05, 0.996, 192.0, 0.0, 0.0, 0.0, 0.0, 0.0, 0.0, 0.0, 0.0, 0.0, 1.715162369907218E9, 0.0, 2024-05-08 12:59:29.907
61.0, -22909.576941678162, 0.0, 0.0, 0.0, 0.0, 0.0, 0.0, 0.0, 0.002, -0.05, 0.996, 192.0, 0.0, 0.0, 254.0, 160.0, 30.0, 240.0, 0.0, 0.0, 0.0, 1.7151623699072318E9, 0.0, 2024-05-08 12:59:29.907
62.0, -23345.61477251229, 0.0, 0.0, 0.0, 0.0, 0.0, 0.0, 0.0, 0.002, -0.05, 0.996, 192.0, 0.0, 0.0, 0.0, 0.0, 0.0, 0.0, 0.0, 0.0, 0.0, 1.7151623699072464E9, 0.0, 2024-05-08 12:59:29.907
63.0, -24407.657910306207, 0.0, 0.0, 0.0, 0.0, 0.0, 0.0, 0.0, 0.002, -0.05, 0.996, 192.0, 0.0, 0.0, 0.0, 0.0, 0.0, 0.0, 0.0, 0.0, 0.0, 1.715162369907262E9, 0.0, 2024-05-08 12:59:29.907
64.0, -25227.765766115877, 0.0, 0.0, 0.0, 0.0, 0.0, 0.0, 0.0, 0.002, -0.05, 0.996, 192.0, 0.0, 0.0, 0.0, 0.0, 0.0, 0.0, 0.0, 0.0, 0.0, 1.7151623699072778E9, 0.0, 2024-05-08 12:59:29.907
65.0, -25306.242740898462, 0.0, 0.0, 0.0, 0.0, 0.0, 0.0, 0.0, 0.002, -0.05, 0.996, 192.0, 0.0, 0.0, 0.0, 0.0, 0.0, 0.0, 0.0, 0.0, 0.0, 1.7151623699072917E9, 0.0, 2024-05-08 12:59:29.907
66.0, -25154.966134424943, 0.0, 0.0, 0.0, 0.0, 0.0, 0.0, 0.0, 0.002, -0.05, 0.996, 192.0, 0.0, 0.0, 0.0, 0.0, 0.0, 0.0, 0.0, 0.0, 0.0, 1.7151623699073074E9, 0.0, 2024-05-08 12:59:29.907
67.0, -25531.57067675241, 0.0, 0.0, 0.0, 0.0, 0.0, 0.0, 0.0, 0.002, -0.05, 0.996, 192.0, 0.0, 0.0, 0.0, 0.0, 0.0, 0.0, 0.0, 0.0, 0.0, 1.7151623699073212E9, 0.0, 2024-05-08 12:59:29.907
68.0, -26484.067914970867, 0.0, 0.0, 0.0, 0.0, 0.0, 0.0, 0.0, 0.002, -0.05, 0.996, 192.0, 0.0, 0.0, 0.0, 0.0, 0.0, 0.0, 0.0, 0.0, 0.0, 1.7151623699073353E9, 0.0, 2024-05-08 12:59:29.907
69.0, -27163.42683594547, 0.0, 0.0, 0.0, 0.0, 0.0, 0.0, 0.0, 0.002, -0.05, 0.996, 192.0, 0.0, 0.0, 0.0, 0.0, 0.0, 0.0, 0.0, 0.0, 0.0, 1.715162369907349E9, 0.0, 2024-05-08 12:59:29.907
70.0, -27087.02857339723, 0.0, 0.0, 0.0, 0.0, 0.0, 0.0, 0.0, 0.002, -0.05, 0.996, 192.0, 0.0, 0.0, 0.0, 0.0, 0.0, 0.0, 0.0, 0.0, 0.0, 1.7151623699073627E9, 0.0, 2024-05-08 12:59:29.907
71.0, -26627.677873096214, 0.0, 0.0, 0.0, 0.0, 0.0, 0.0, 0.0, 0.002, -0.05, 0.996, 192.0, 0.0, 0.0, 254.0, 144.0, 31.0, 0.0, 0.0, 0.0, 0.0, 1.7151623699073768E9, 0.0, 2024-05-08 12:59:29.907
72.0, -26553.917116393703, 0.0, 0.0, 0.0, 0.0, 0.0, 0.0, 0.0, 0.002, -0.05, 0.996, 192.0, 0.0, 0.0, 0.0, 0.0, 0.0, 0.0, 0.0, 0.0, 0.0, 1.7151623699073913E9, 0.0, 2024-05-08 12:59:29.907
73.0, -27033.764366360232, 0.0, 0.0, 0.0, 0.0, 0.0, 0.0, 0.0, 0.002, -0.05, 0.996, 192.0, 0.0, 0.0, 0.0, 0.0, 0.0, 0.0, 0.0, 0.0, 0.0, 1.7151623699074068E9, 0.0, 2024-05-08 12:59:29.907
74.0, -27303.81814286925, 0.0, 0.0, 0.0, 0.0, 0.0, 0.0, 0.0, 0.002, -0.05, 0.996, 192.0, 0.0, 0.0, 0.0, 0.0, 0.0, 0.0, 0.0, 0.0, 0.0, 1.715162369907428E9, 0.0, 2024-05-08 12:59:29.907
75.0, -26785.995279073155, 0.0, 0.0, 0.0, 0.0, 0.0, 0.0, 0.0, 0.002, -0.05, 0.996, 192.0, 0.0, 0.0, 0.0, 0.0, 0.0, 0.0, 0.0, 0.0, 0.0, 1.715162369907442E9, 0.0, 2024-05-08 12:59:29.907
76.0, -25983.768818827728, 0.0, 0.0, 0.0, 0.0, 0.0, 0.0, 0.0, 0.002, -0.05, 0.996, 192.0, 0.0, 0.0, 0.0, 0.0, 0.0, 0.0, 0.0, 0.0, 0.0, 1.7151623699074557E9, 0.0, 2024-05-08 12:59:29.907
77.0, -25677.684030256754, 0.0, 0.0, 0.0, 0.0, 0.0, 0.0, 0.0, 0.002, -0.05, 0.996, 192.0, 0.0, 0.0, 0.0, 0.0, 0.0, 0.0, 0.0, 0.0, 0.0, 1.7151623699074695E9, 0.0, 2024-05-08 12:59:29.907
78.0, -26177.67020197752, 0.0, 0.0, 0.0, 0.0, 0.0, 0.0, 0.0, 0.002, -0.05, 0.996, 192.0, 0.0, 0.0, 0.0, 0.0, 0.0, 0.0, 0.0, 0.0, 0.0, 1.7151623699074836E9, 0.0, 2024-05-08 12:59:29.907
79.0, -26527.810278869903, 0.0, 0.0, 0.0, 0.0, 0.0, 0.0, 0.0, 0.002, -0.05, 0.996, 192.0, 0.0, 0.0, 0.0, 0.0, 0.0, 0.0, 0.0, 0.0, 0.0, 1.7151623699074974E9, 0.0, 2024-05-08 12:59:29.907
80.0, -26213.097716939177, 0.0, 0.0, 0.0, 0.0, 0.0, 0.0, 0.0, 0.002, -0.05, 0.996, 192.0, 0.0, 0.0, 0.0, 0.0, 0.0, 0.0, 0.0, 0.0, 0.0, 1.7151623699075131E9, 0.0, 2024-05-08 12:59:29.907
81.0, -25845.05389273809, 0.0, 0.0, 0.0, 0.0, 0.0, 0.0, 0.0, 0.002, -0.052000000000000005, 0.996, 192.0, 0.0, 16.0, 254.0, 96.0, 31.0, 32.0, 0.0, 0.0, 0.0, 1.7151623699075267E9, 0.0, 2024-05-08 12:59:29.907
82.0, -26016.692938410397, 0.0, 0.0, 0.0, 0.0, 0.0, 0.0, 0.0, 0.002, -0.052000000000000005, 0.996, 192.0, 0.0, 0.0, 0.0, 0.0, 0.0, 0.0, 0.0, 0.0, 0.0, 1.7151623699075415E9, 0.0, 2024-05-08 12:59:29.907
83.0, -26951.040560131143, 0.0, 0.0, 0.0, 0.0, 0.0, 0.0, 0.0, 0.002, -0.052000000000000005, 0.996, 192.0, 0.0, 0.0, 0.0, 0.0, 0.0, 0.0, 0.0, 0.0, 0.0, 1.7151623699075556E9, 0.0, 2024-05-08 12:59:29.907
84.0, -27712.00570011207, 0.0, 0.0, 0.0, 0.0, 0.0, 0.0, 0.0, 0.002, -0.052000000000000005, 0.996, 192.0, 0.0, 0.0, 0.0, 0.0, 0.0, 0.0, 0.0, 0.0, 0.0, 1.7151623699075692E9, 0.0, 2024-05-08 12:59:29.907
85.0, -27773.271831664068, 0.0, 0.0, 0.0, 0.0, 0.0, 0.0, 0.0, 0.002, -0.052000000000000005, 0.996, 192.0, 0.0, 0.0, 0.0, 0.0, 0.0, 0.0, 0.0, 0.0, 0.0, 1.7151623699075832E9, 0.0, 2024-05-08 12:59:29.907
86.0, -27322.146573322603, 0.0, 0.0, 0.0, 0.0, 0.0, 0.0, 0.0, 0.002, -0.052000000000000005, 0.996, 192.0, 0.0, 0.0, 0.0, 0.0, 0.0, 0.0, 0.0, 0.0, 0.0, 1.7151623699076016E9, 0.0, 2024-05-08 12:59:29.907
87.0, -27160.36464695509, 0.0, 0.0, 0.0, 0.0, 0.0, 0.0, 0.0, 0.002, -0.052000000000000005, 0.996, 192.0, 0.0, 0.0, 0.0, 0.0, 0.0, 0.0, 0.0, 0.0, 0.0, 1.715162369907618E9, 0.0, 2024-05-08 12:59:29.907
88.0, -27672.934850804195, 0.0, 0.0, 0.0, 0.0, 0.0, 0.0, 0.0, 0.002, -0.052000000000000005, 0.996, 192.0, 0.0, 0.0, 0.0, 0.0, 0.0, 0.0, 0.0, 0.0, 0.0, 1.715162369907636E9, 0.0, 2024-05-08 12:59:29.907
89.0, -27831.989864348157, 0.0, 0.0, 0.0, 0.0, 0.0, 0.0, 0.0, 0.002, -0.052000000000000005, 0.996, 192.0, 0.0, 0.0, 0.0, 0.0, 0.0, 0.0, 0.0, 0.0, 0.0, 1.715162369907653E9, 0.0, 2024-05-08 12:59:29.907
90.0, -27282.62868912562, 0.0, 0.0, 0.0, 0.0, 0.0, 0.0, 0.0, 0.002, -0.052000000000000005, 0.996, 192.0, 0.0, 0.0, 0.0, 0.0, 0.0, 0.0, 0.0, 0.0, 0.0, 1.7151623699076705E9, 0.0, 2024-05-08 12:59:29.907
91.0, -26281.829331139248, 0.0, 0.0, 0.0, 0.0, 0.0, 0.0, 0.0, 0.002, -0.052000000000000005, 0.99, 192.0, 0.0, 16.0, 254.0, 96.0, 30.0, 240.0, 0.0, 0.0, 0.0, 1.7151623699077024E9, 0.0, 2024-05-08 12:59:29.907
92.0, -25802.987909673204, 0.0, 0.0, 0.0, 0.0, 0.0, 0.0, 0.0, 0.002, -0.052000000000000005, 0.99, 192.0, 0.0, 0.0, 0.0, 0.0, 0.0, 0.0, 0.0, 0.0, 0.0, 1.715162369907726E9, 0.0, 2024-05-08 12:59:29.907
93.0, -26000.599682402575, 0.0, 0.0, 0.0, 0.0, 0.0, 0.0, 0.0, 0.002, -0.052000000000000005, 0.99, 192.0, 0.0, 0.0, 0.0, 0.0, 0.0, 0.0, 0.0, 0.0, 0.0, 1.7151623699077463E9, 0.0, 2024-05-08 12:59:29.907
94.0, -25992.95538579886, 0.0, 0.0, 0.0, 0.0, 0.0, 0.0, 0.0, 0.002, -0.052000000000000005, 0.99, 192.0, 0.0, 0.0, 0.0, 0.0, 0.0, 0.0, 0.0, 0.0, 0.0, 1.7151623699077601E9, 0.0, 2024-05-08 12:59:29.907
95.0, -25473.880824313263, 0.0, 0.0, 0.0, 0.0, 0.0, 0.0, 0.0, 0.002, -0.052000000000000005, 0.99, 192.0, 0.0, 0.0, 0.0, 0.0, 0.0, 0.0, 0.0, 0.0, 0.0, 1.715162369907774E9, 0.0, 2024-05-08 12:59:29.907
96.0, -24719.732966391202, 0.0, 0.0, 0.0, 0.0, 0.0, 0.0, 0.0, 0.002, -0.052000000000000005, 0.99, 192.0, 0.0, 0.0, 0.0, 0.0, 0.0, 0.0, 0.0, 0.0, 0.0, 1.7151623699077876E9, 0.0, 2024-05-08 12:59:29.907
97.0, -24169.008334756894, 0.0, 0.0, 0.0, 0.0, 0.0, 0.0, 0.0, 0.002, -0.052000000000000005, 0.99, 192.0, 0.0, 0.0, 0.0, 0.0, 0.0, 0.0, 0.0, 0.0, 0.0, 1.7151623699078016E9, 0.0, 2024-05-08 12:59:29.907
98.0, -24516.443850570187, 0.0, 0.0, 0.0, 0.0, 0.0, 0.0, 0.0, 0.002, -0.052000000000000005, 0.99, 192.0, 0.0, 0.0, 0.0, 0.0, 0.0, 0.0, 0.0, 0.0, 0.0, 1.7151623699078152E9, 0.0, 2024-05-08 12:59:29.907
99.0, -28339.218001272442, 0.0, 0.0, 0.0, 0.0, 0.0, 0.0, 0.0, 0.002, -0.052000000000000005, 0.99, 192.0, 0.0, 0.0, 0.0, 0.0, 0.0, 0.0, 0.0, 0.0, 0.0, 1.7151623699078307E9, 0.0, 2024-05-08 12:59:29.907
100.0, -41117.91147207159, 0.0, 0.0, 0.0, 0.0, 0.0, 0.0, 0.0, 0.002, -0.052000000000000005, 0.99, 192.0, 0.0, 0.0, 0.0, 0.0, 0.0, 0.0, 0.0, 0.0, 0.0, 1.7151623699078443E9, 0.0, 2024-05-08 12:59:29.907
101.0, -40919.204463863905, 0.0, 0.0, 0.0, 0.0, 0.0, 0.0, 0.0, 0.002, -0.052000000000000005, 0.996, 192.0, 0.0, 16.0, 254.0, 96.0, 31.0, 32.0, 0.0, 0.0, 0.0, 1.7151623699078584E9, 0.0, 2024-05-08 12:59:29.907
102.0, -38343.83646772343, 0.0, 0.0, 0.0, 0.0, 0.0, 0.0, 0.0, 0.002, -0.052000000000000005, 0.996, 192.0, 0.0, 0.0, 0.0, 0.0, 0.0, 0.0, 0.0, 0.0, 0.0, 1.7151623699078732E9, 0.0, 2024-05-08 12:59:29.907
103.0, -37381.169185777806, 0.0, 0.0, 0.0, 0.0, 0.0, 0.0, 0.0, 0.002, -0.052000000000000005, 0.996, 192.0, 0.0, 0.0, 0.0, 0.0, 0.0, 0.0, 0.0, 0.0, 0.0, 1.7151623699078867E9, 0.0, 2024-05-08 12:59:29.907
104.0, -36543.04582393716, 0.0, 0.0, 0.0, 0.0, 0.0, 0.0, 0.0, 0.002, -0.052000000000000005, 0.996, 192.0, 0.0, 0.0, 0.0, 0.0, 0.0, 0.0, 0.0, 0.0, 0.0, 1.7151623699079003E9, 0.0, 2024-05-08 12:59:29.907
105.0, -35058.577067682396, 0.0, 0.0, 0.0, 0.0, 0.0, 0.0, 0.0, 0.002, -0.052000000000000005, 0.996, 192.0, 0.0, 0.0, 0.0, 0.0, 0.0, 0.0, 0.0, 0.0, 0.0, 1.7151623699079142E9, 0.0, 2024-05-08 12:59:29.907
106.0, -33456.22521117034, 0.0, 0.0, 0.0, 0.0, 0.0, 0.0, 0.0, 0.002, -0.052000000000000005, 0.996, 192.0, 0.0, 0.0, 0.0, 0.0, 0.0, 0.0, 0.0, 0.0, 0.0, 1.7151623699079297E9, 0.0, 2024-05-08 12:59:29.907
107.0, -32617.811276651777, 0.0, 0.0, 0.0, 0.0, 0.0, 0.0, 0.0, 0.002, -0.052000000000000005, 0.996, 192.0, 0.0, 0.0, 0.0, 0.0, 0.0, 0.0, 0.0, 0.0, 0.0, 1.7151623703861437E9, 0.0, 2024-05-08 12:59:30.386
108.0, -32736.946074598563, 0.0, 0.0, 0.0, 0.0, 0.0, 0.0, 0.0, 0.002, -0.052000000000000005, 0.996, 192.0, 0.0, 0.0, 0.0, 0.0, 0.0, 0.0, 0.0, 0.0, 0.0, 1.7151623703862102E9, 0.0, 2024-05-08 12:59:30.386
109.0, -32641.906457174595, 0.0, 0.0, 0.0, 0.0, 0.0, 0.0, 0.0, 0.002, -0.052000000000000005, 0.996, 192.0, 0.0, 0.0, 0.0, 0.0, 0.0, 0.0, 0.0, 0.0, 0.0, 1.715162370386402E9, 0.0, 2024-05-08 12:59:30.386
110.0, -31768.444987350107, 0.0, 0.0, 0.0, 0.0, 0.0, 0.0, 0.0, 0.002, -0.052000000000000005, 0.996, 192.0, 0.0, 0.0, 0.0, 0.0, 0.0, 0.0, 0.0, 0.0, 0.0, 1.7151623703864365E9, 0.0, 2024-05-08 12:59:30.386
111.0, -30801.79909489144, 0.0, 0.0, 0.0, 0.0, 0.0, 0.0, 0.0, 0.004, -0.054, 0.994, 192.0, 0.0, 32.0, 254.0, 80.0, 31.0, 16.0, 0.0, 0.0, 0.0, 1.715162370386469E9, 0.0, 2024-05-08 12:59:30.386
112.0, -30503.31389943527, 0.0, 0.0, 0.0, 0.0, 0.0, 0.0, 0.0, 0.004, -0.054, 0.994, 192.0, 0.0, 0.0, 0.0, 0.0, 0.0, 0.0, 0.0, 0.0, 0.0, 1.7151623703865051E9, 0.0, 2024-05-08 12:59:30.386
113.0, -30980.501291811623, 0.0, 0.0, 0.0, 0.0, 0.0, 0.0, 0.0, 0.004, -0.054, 0.994, 192.0, 0.0, 0.0, 0.0, 0.0, 0.0, 0.0, 0.0, 0.0, 0.0, 1.7151623703865373E9, 0.0, 2024-05-08 12:59:30.386
114.0, -31356.904668438994, 0.0, 0.0, 0.0, 0.0, 0.0, 0.0, 0.0, 0.004, -0.054, 0.994, 192.0, 0.0, 0.0, 0.0, 0.0, 0.0, 0.0, 0.0, 0.0, 0.0, 1.7151623703865693E9, 0.0, 2024-05-08 12:59:30.386
115.0, -30992.861806495406, 0.0, 0.0, 0.0, 0.0, 0.0, 0.0, 0.0, 0.004, -0.054, 0.994, 192.0, 0.0, 0.0, 0.0, 0.0, 0.0, 0.0, 0.0, 0.0, 0.0, 1.7151623703866005E9, 0.0, 2024-05-08 12:59:30.386
116.0, -30307.28910056223, 0.0, 0.0, 0.0, 0.0, 0.0, 0.0, 0.0, 0.004, -0.054, 0.994, 192.0, 0.0, 0.0, 0.0, 0.0, 0.0, 0.0, 0.0, 0.0, 0.0, 1.7151623703866343E9, 0.0, 2024-05-08 12:59:30.386
117.0, -30209.097887170064, 0.0, 0.0, 0.0, 0.0, 0.0, 0.0, 0.0, 0.004, -0.054, 0.994, 192.0, 0.0, 0.0, 0.0, 0.0, 0.0, 0.0, 0.0, 0.0, 0.0, 1.7151623703866658E9, 0.0, 2024-05-08 12:59:30.386
118.0, -31185.891471611438, 0.0, 0.0, 0.0, 0.0, 0.0, 0.0, 0.0, 0.004, -0.054, 0.994, 192.0, 0.0, 0.0, 0.0, 0.0, 0.0, 0.0, 0.0, 0.0, 0.0, 1.7151623703866973E9, 0.0, 2024-05-08 12:59:30.386
119.0, -31932.17151548523, 0.0, 0.0, 0.0, 0.0, 0.0, 0.0, 0.0, 0.004, -0.054, 0.994, 192.0, 0.0, 0.0, 0.0, 0.0, 0.0, 0.0, 0.0, 0.0, 0.0, 1.715162370386731E9, 0.0, 2024-05-08 12:59:30.386
120.0, -31955.976123330132, 0.0, 0.0, 0.0, 0.0, 0.0, 0.0, 0.0, 0.004, -0.054, 0.994, 192.0, 0.0, 0.0, 0.0, 0.0, 0.0, 0.0, 0.0, 0.0, 0.0, 1.715162370386762E9, 0.0, 2024-05-08 12:59:30.386
121.0, -31731.65401597667, 0.0, 0.0, 0.0, 0.0, 0.0, 0.0, 0.0, 0.002, -0.05, 0.99, 192.0, 0.0, 16.0, 254.0, 112.0, 30.0, 240.0, 0.0, 0.0, 0.0, 1.7151623703867931E9, 0.0, 2024-05-08 12:59:30.386
122.0, -31945.26963773604, 0.0, 0.0, 0.0, 0.0, 0.0, 0.0, 0.0, 0.002, -0.05, 0.99, 192.0, 0.0, 0.0, 0.0, 0.0, 0.0, 0.0, 0.0, 0.0, 0.0, 1.7151623703868265E9, 0.0, 2024-05-08 12:59:30.386
123.0, -32704.357231182723, 0.0, 0.0, 0.0, 0.0, 0.0, 0.0, 0.0, 0.002, -0.05, 0.99, 192.0, 0.0, 0.0, 0.0, 0.0, 0.0, 0.0, 0.0, 0.0, 0.0, 1.715162370386858E9, 0.0, 2024-05-08 12:59:30.386
124.0, -32894.16824509719, 0.0, 0.0, 0.0, 0.0, 0.0, 0.0, 0.0, 0.002, -0.05, 0.99, 192.0, 0.0, 0.0, 0.0, 0.0, 0.0, 0.0, 0.0, 0.0, 0.0, 1.7151623703868892E9, 0.0, 2024-05-08 12:59:30.386
125.0, -32390.136407630016, 0.0, 0.0, 0.0, 0.0, 0.0, 0.0, 0.0, 0.002, -0.05, 0.99, 192.0, 0.0, 0.0, 0.0, 0.0, 0.0, 0.0, 0.0, 0.0, 0.0, 1.715162370386928E9, 0.0, 2024-05-08 12:59:30.386
126.0, -31816.925921073667, 0.0, 0.0, 0.0, 0.0, 0.0, 0.0, 0.0, 0.002, -0.05, 0.99, 192.0, 0.0, 0.0, 0.0, 0.0, 0.0, 0.0, 0.0, 0.0, 0.0, 1.7151623703870077E9, 0.0, 2024-05-08 12:59:30.387
127.0, -30497.524797621347, 0.0, 0.0, 0.0, 0.0, 0.0, 0.0, 0.0, 0.002, -0.05, 0.99, 192.0, 0.0, 0.0, 0.0, 0.0, 0.0, 0.0, 0.0, 0.0, 0.0, 1.715162370387048E9, 0.0, 2024-05-08 12:59:30.387
128.0, -30877.39269463929, 0.0, 0.0, 0.0, 0.0, 0.0, 0.0, 0.0, 0.002, -0.05, 0.99, 192.0, 0.0, 0.0, 0.0, 0.0, 0.0, 0.0, 0.0, 0.0, 0.0, 1.7151623703870885E9, 0.0, 2024-05-08 12:59:30.387
129.0, -32122.87659917791, 0.0, 0.0, 0.0, 0.0, 0.0, 0.0, 0.0, 0.002, -0.05, 0.99, 192.0, 0.0, 0.0, 0.0, 0.0, 0.0, 0.0, 0.0, 0.0, 0.0, 1.7151623703871293E9, 0.0, 2024-05-08 12:59:30.387
130.0, -32281.685743532867, 0.0, 0.0, 0.0, 0.0, 0.0, 0.0, 0.0, 0.002, -0.05, 0.99, 192.0, 0.0, 0.0, 0.0, 0.0, 0.0, 0.0, 0.0, 0.0, 0.0, 1.7151623703871708E9, 0.0, 2024-05-08 12:59:30.387
131.0, -31983.155844587785, 0.0, 0.0, 0.0, 0.0, 0.0, 0.0, 0.0, 0.002, -0.05, 0.99, 192.0, 0.0, 0.0, 254.0, 96.0, 30.0, 208.0, 0.0, 0.0, 0.0, 1.7151623703872132E9, 0.0, 2024-05-08 12:59:30.387
132.0, -32268.699380004335, 0.0, 0.0, 0.0, 0.0, 0.0, 0.0, 0.0, 0.002, -0.05, 0.99, 192.0, 0.0, 0.0, 0.0, 0.0, 0.0, 0.0, 0.0, 0.0, 0.0, 1.7151623703872507E9, 0.0, 2024-05-08 12:59:30.387
133.0, -33409.10773385855, 0.0, 0.0, 0.0, 0.0, 0.0, 0.0, 0.0, 0.002, -0.05, 0.99, 192.0, 0.0, 0.0, 0.0, 0.0, 0.0, 0.0, 0.0, 0.0, 0.0, 1.7151623703872793E9, 0.0, 2024-05-08 12:59:30.387
134.0, -34414.33273724708, 0.0, 0.0, 0.0, 0.0, 0.0, 0.0, 0.0, 0.002, -0.05, 0.99, 192.0, 0.0, 0.0, 0.0, 0.0, 0.0, 0.0, 0.0, 0.0, 0.0, 1.715162370387298E9, 0.0, 2024-05-08 12:59:30.387
135.0, -34454.34235982208, 0.0, 0.0, 0.0, 0.0, 0.0, 0.0, 0.0, 0.002, -0.05, 0.99, 192.0, 0.0, 0.0, 0.0, 0.0, 0.0, 0.0, 0.0, 0.0, 0.0, 1.7151623703873155E9, 0.0, 2024-05-08 12:59:30.387
136.0, -33977.57965059038, 0.0, 0.0, 0.0, 0.0, 0.0, 0.0, 0.0, 0.002, -0.05, 0.99, 192.0, 0.0, 0.0, 0.0, 0.0, 0.0, 0.0, 0.0, 0.0, 0.0, 1.7151623703873336E9, 0.0, 2024-05-08 12:59:30.387
137.0, -35028.49161964555, 0.0, 0.0, 0.0, 0.0, 0.0, 0.0, 0.0, 0.002, -0.05, 0.99, 192.0, 0.0, 0.0, 0.0, 0.0, 0.0, 0.0, 0.0, 0.0, 0.0, 1.7151623703873515E9, 0.0, 2024-05-08 12:59:30.387
138.0, -36398.944127433795, 0.0, 0.0, 0.0, 0.0, 0.0, 0.0, 0.0, 0.002, -0.05, 0.99, 192.0, 0.0, 0.0, 0.0, 0.0, 0.0, 0.0, 0.0, 0.0, 0.0, 1.7151623703873703E9, 0.0, 2024-05-08 12:59:30.387
139.0, -36630.35173777959, 0.0, 0.0, 0.0, 0.0, 0.0, 0.0, 0.0, 0.002, -0.05, 0.99, 192.0, 0.0, 0.0, 0.0, 0.0, 0.0, 0.0, 0.0, 0.0, 0.0, 1.7151623703873918E9, 0.0, 2024-05-08 12:59:30.387
140.0, -35969.03067458042, 0.0, 0.0, 0.0, 0.0, 0.0, 0.0, 0.0, 0.002, -0.05, 0.99, 192.0, 0.0, 0.0, 0.0, 0.0, 0.0, 0.0, 0.0, 0.0, 0.0, 1.715162370387411E9, 0.0, 2024-05-08 12:59:30.387
141.0, -34720.708098495976, 0.0, 0.0, 0.0, 0.0, 0.0, 0.0, 0.0, 0.002, -0.05, 0.99, 192.0, 0.0, 16.0, 254.0, 112.0, 30.0, 240.0, 0.0, 0.0, 0.0, 1.7151623703874297E9, 0.0, 2024-05-08 12:59:30.387
142.0, -34000.93722354618, 0.0, 0.0, 0.0, 0.0, 0.0, 0.0, 0.0, 0.002, -0.05, 0.99, 192.0, 0.0, 0.0, 0.0, 0.0, 0.0, 0.0, 0.0, 0.0, 0.0, 1.7151623703874505E9, 0.0, 2024-05-08 12:59:30.387
143.0, -34300.78587541412, 0.0, 0.0, 0.0, 0.0, 0.0, 0.0, 0.0, 0.002, -0.05, 0.99, 192.0, 0.0, 0.0, 0.0, 0.0, 0.0, 0.0, 0.0, 0.0, 0.0, 1.7151623703874996E9, 0.0, 2024-05-08 12:59:30.387
144.0, -34689.54976672528, 0.0, 0.0, 0.0, 0.0, 0.0, 0.0, 0.0, 0.002, -0.05, 0.99, 192.0, 0.0, 0.0, 0.0, 0.0, 0.0, 0.0, 0.0, 0.0, 0.0, 1.715162370387519E9, 0.0, 2024-05-08 12:59:30.387
145.0, -34684.34181026719, 0.0, 0.0, 0.0, 0.0, 0.0, 0.0, 0.0, 0.002, -0.05, 0.99, 192.0, 0.0, 0.0, 0.0, 0.0, 0.0, 0.0, 0.0, 0.0, 0.0, 1.71516237038754E9, 0.0, 2024-05-08 12:59:30.387
146.0, -33894.38645772773, 0.0, 0.0, 0.0, 0.0, 0.0, 0.0, 0.0, 0.002, -0.05, 0.99, 192.0, 0.0, 0.0, 0.0, 0.0, 0.0, 0.0, 0.0, 0.0, 0.0, 1.715162370387561E9, 0.0, 2024-05-08 12:59:30.387
147.0, -33614.34145144719, 0.0, 0.0, 0.0, 0.0, 0.0, 0.0, 0.0, 0.002, -0.05, 0.99, 192.0, 0.0, 0.0, 0.0, 0.0, 0.0, 0.0, 0.0, 0.0, 0.0, 1.71516237038758E9, 0.0, 2024-05-08 12:59:30.387
148.0, -34220.16313316383, 0.0, 0.0, 0.0, 0.0, 0.0, 0.0, 0.0, 0.002, -0.05, 0.99, 192.0, 0.0, 0.0, 0.0, 0.0, 0.0, 0.0, 0.0, 0.0, 0.0, 1.7151623703875976E9, 0.0, 2024-05-08 12:59:30.387
149.0, -34645.29331270377, 0.0, 0.0, 0.0, 0.0, 0.0, 0.0, 0.0, 0.002, -0.05, 0.99, 192.0, 0.0, 0.0, 0.0, 0.0, 0.0, 0.0, 0.0, 0.0, 0.0, 1.7151623703876157E9, 0.0, 2024-05-08 12:59:30.387
150.0, -34414.60095818054, 0.0, 0.0, 0.0, 0.0, 0.0, 0.0, 0.0, 0.002, -0.05, 0.99, 192.0, 0.0, 0.0, 0.0, 0.0, 0.0, 0.0, 0.0, 0.0, 0.0, 1.7151623703876336E9, 0.0, 2024-05-08 12:59:30.387
151.0, -34078.296611105994, 0.0, 0.0, 0.0, 0.0, 0.0, 0.0, 0.0, -0.002, -0.048, 0.994, 192.0, 255.0, 240.0, 254.0, 128.0, 31.0, 16.0, 0.0, 0.0, 0.0, 1.715162370387652E9, 0.0, 2024-05-08 12:59:30.387
152.0, -33907.05989683389, 0.0, 0.0, 0.0, 0.0, 0.0, 0.0, 0.0, -0.002, -0.048, 0.994, 192.0, 0.0, 0.0, 0.0, 0.0, 0.0, 0.0, 0.0, 0.0, 0.0, 1.7151623703876753E9, 0.0, 2024-05-08 12:59:30.387
153.0, -34769.569011875275, 0.0, 0.0, 0.0, 0.0, 0.0, 0.0, 0.0, -0.002, -0.048, 0.994, 192.0, 0.0, 0.0, 0.0, 0.0, 0.0, 0.0, 0.0, 0.0, 0.0, 1.7151623703876932E9, 0.0, 2024-05-08 12:59:30.387
154.0, -35703.38019172909, 0.0, 0.0, 0.0, 0.0, 0.0, 0.0, 0.0, -0.002, -0.048, 0.994, 192.0, 0.0, 0.0, 0.0, 0.0, 0.0, 0.0, 0.0, 0.0, 0.0, 1.7151623703877115E9, 0.0, 2024-05-08 12:59:30.387
155.0, -35820.928015819554, 0.0, 0.0, 0.0, 0.0, 0.0, 0.0, 0.0, -0.002, -0.048, 0.994, 192.0, 0.0, 0.0, 0.0, 0.0, 0.0, 0.0, 0.0, 0.0, 0.0, 1.7151623703877313E9, 0.0, 2024-05-08 12:59:30.387
156.0, -35361.89023994091, 0.0, 0.0, 0.0, 0.0, 0.0, 0.0, 0.0, -0.002, -0.048, 0.994, 192.0, 0.0, 0.0, 0.0, 0.0, 0.0, 0.0, 0.0, 0.0, 0.0, 1.7151623703877518E9, 0.0, 2024-05-08 12:59:30.387
157.0, -35450.693720661846, 0.0, 0.0, 0.0, 0.0, 0.0, 0.0, 0.0, -0.002, -0.048, 0.994, 192.0, 0.0, 0.0, 0.0, 0.0, 0.0, 0.0, 0.0, 0.0, 0.0, 1.7151623703877718E9, 0.0, 2024-05-08 12:59:30.387
158.0, -36243.48774474714, 0.0, 0.0, 0.0, 0.0, 0.0, 0.0, 0.0, -0.002, -0.048, 0.994, 192.0, 0.0, 0.0, 0.0, 0.0, 0.0, 0.0, 0.0, 0.0, 0.0, 1.715162370387792E9, 0.0, 2024-05-08 12:59:30.387
159.0, -36593.15843500596, 0.0, 0.0, 0.0, 0.0, 0.0, 0.0, 0.0, -0.002, -0.048, 0.994, 192.0, 0.0, 0.0, 0.0, 0.0, 0.0, 0.0, 0.0, 0.0, 0.0, 1.7151623703878105E9, 0.0, 2024-05-08 12:59:30.387
160.0, -36107.03034484749, 0.0, 0.0, 0.0, 0.0, 0.0, 0.0, 0.0, -0.002, -0.048, 0.994, 192.0, 0.0, 0.0, 0.0, 0.0, 0.0, 0.0, 0.0, 0.0, 0.0, 1.7151623703878288E9, 0.0, 2024-05-08 12:59:30.387
161.0, -35098.206710601655, 0.0, 0.0, 0.0, 0.0, 0.0, 0.0, 0.0, -0.002, -0.046, 0.992, 192.0, 255.0, 240.0, 254.0, 144.0, 31.0, 0.0, 0.0, 0.0, 0.0, 1.7151623703878748E9, 0.0, 2024-05-08 12:59:30.387
162.0, -34836.60189349674, 0.0, 0.0, 0.0, 0.0, 0.0, 0.0, 0.0, -0.002, -0.046, 0.992, 192.0, 0.0, 0.0, 0.0, 0.0, 0.0, 0.0, 0.0, 0.0, 0.0, 1.7151623703878963E9, 0.0, 2024-05-08 12:59:30.387
163.0, -35768.64728553859, 0.0, 0.0, 0.0, 0.0, 0.0, 0.0, 0.0, -0.002, -0.046, 0.992, 192.0, 0.0, 0.0, 0.0, 0.0, 0.0, 0.0, 0.0, 0.0, 0.0, 1.715162370387916E9, 0.0, 2024-05-08 12:59:30.387
164.0, -36658.55963928218, 0.0, 0.0, 0.0, 0.0, 0.0, 0.0, 0.0, -0.002, -0.046, 0.992, 192.0, 0.0, 0.0, 0.0, 0.0, 0.0, 0.0, 0.0, 0.0, 0.0, 1.7151623703879356E9, 0.0, 2024-05-08 12:59:30.387
165.0, -36400.687563501306, 0.0, 0.0, 0.0, 0.0, 0.0, 0.0, 0.0, -0.002, -0.046, 0.992, 192.0, 0.0, 0.0, 0.0, 0.0, 0.0, 0.0, 0.0, 0.0, 0.0, 1.715162370387957E9, 0.0, 2024-05-08 12:59:30.387
166.0, -35453.39828174094, 0.0, 0.0, 0.0, 0.0, 0.0, 0.0, 0.0, -0.002, -0.046, 0.992, 192.0, 0.0, 0.0, 0.0, 0.0, 0.0, 0.0, 0.0, 0.0, 0.0, 1.715162370387975E9, 0.0, 2024-05-08 12:59:30.387
167.0, -34953.76973793146, 0.0, 0.0, 0.0, 0.0, 0.0, 0.0, 0.0, -0.002, -0.046, 0.992, 192.0, 0.0, 0.0, 0.0, 0.0, 0.0, 0.0, 0.0, 0.0, 0.0, 1.7151623703879929E9, 0.0, 2024-05-08 12:59:30.387
168.0, -35335.85045765048, 0.0, 0.0, 0.0, 0.0, 0.0, 0.0, 0.0, -0.002, -0.046, 0.992, 192.0, 0.0, 0.0, 0.0, 0.0, 0.0, 0.0, 0.0, 0.0, 0.0, 1.7151623703880103E9, 0.0, 2024-05-08 12:59:30.388
169.0, -35603.60200448061, 0.0, 0.0, 0.0, 0.0, 0.0, 0.0, 0.0, -0.002, -0.046, 0.992, 192.0, 0.0, 0.0, 0.0, 0.0, 0.0, 0.0, 0.0, 0.0, 0.0, 1.7151623703880284E9, 0.0, 2024-05-08 12:59:30.388
170.0, -35022.03196549797, 0.0, 0.0, 0.0, 0.0, 0.0, 0.0, 0.0, -0.002, -0.046, 0.992, 192.0, 0.0, 0.0, 0.0, 0.0, 0.0, 0.0, 0.0, 0.0, 0.0, 1.7151623703880472E9, 0.0, 2024-05-08 12:59:30.388
171.0, -34033.74958440657, 0.0, 0.0, 0.0, 0.0, 0.0, 0.0, 0.0, -0.002, -0.046, 0.992, 192.0, 0.0, 0.0, 254.0, 160.0, 31.0, 0.0, 0.0, 0.0, 0.0, 1.7151623703880656E9, 0.0, 2024-05-08 12:59:30.388
172.0, -33574.801215505744, 0.0, 0.0, 0.0, 0.0, 0.0, 0.0, 0.0, -0.002, -0.046, 0.992, 192.0, 0.0, 0.0, 0.0, 0.0, 0.0, 0.0, 0.0, 0.0, 0.0, 1.7151623703880863E9, 0.0, 2024-05-08 12:59:30.388
173.0, -34012.40366845175, 0.0, 0.0, 0.0, 0.0, 0.0, 0.0, 0.0, -0.002, -0.046, 0.992, 192.0, 0.0, 0.0, 0.0, 0.0, 0.0, 0.0, 0.0, 0.0, 0.0, 1.7151623703881052E9, 0.0, 2024-05-08 12:59:30.388
174.0, -34277.09302629149, 0.0, 0.0, 0.0, 0.0, 0.0, 0.0, 0.0, -0.002, -0.046, 0.992, 192.0, 0.0, 0.0, 0.0, 0.0, 0.0, 0.0, 0.0, 0.0, 0.0, 1.715162370388124E9, 0.0, 2024-05-08 12:59:30.388
175.0, -33655.781585667326, 0.0, 0.0, 0.0, 0.0, 0.0, 0.0, 0.0, -0.002, -0.046, 0.992, 192.0, 0.0, 0.0, 0.0, 0.0, 0.0, 0.0, 0.0, 0.0, 0.0, 1.7151623703881428E9, 0.0, 2024-05-08 12:59:30.388
176.0, -32700.333917180767, 0.0, 0.0, 0.0, 0.0, 0.0, 0.0, 0.0, -0.002, -0.046, 0.992, 192.0, 0.0, 0.0, 0.0, 0.0, 0.0, 0.0, 0.0, 0.0, 0.0, 1.7151623703881607E9, 0.0, 2024-05-08 12:59:30.388
177.0, -32285.329077879083, 0.0, 0.0, 0.0, 0.0, 0.0, 0.0, 0.0, -0.002, -0.046, 0.992, 192.0, 0.0, 0.0, 0.0, 0.0, 0.0, 0.0, 0.0, 0.0, 0.0, 1.7151623703881788E9, 0.0, 2024-05-08 12:59:30.388
178.0, -32782.72244724303, 0.0, 0.0, 0.0, 0.0, 0.0, 0.0, 0.0, -0.002, -0.046, 0.992, 192.0, 0.0, 0.0, 0.0, 0.0, 0.0, 0.0, 0.0, 0.0, 0.0, 1.7151623703882284E9, 0.0, 2024-05-08 12:59:30.388
179.0, -33152.66616972282, 0.0, 0.0, 0.0, 0.0, 0.0, 0.0, 0.0, -0.002, -0.046, 0.992, 192.0, 0.0, 0.0, 0.0, 0.0, 0.0, 0.0, 0.0, 0.0, 0.0, 1.71516237038825E9, 0.0, 2024-05-08 12:59:30.388
180.0, -32686.498187362933, 0.0, 0.0, 0.0, 0.0, 0.0, 0.0, 0.0, -0.002, -0.046, 0.992, 192.0, 0.0, 0.0, 0.0, 0.0, 0.0, 0.0, 0.0, 0.0, 0.0, 1.7151623703882835E9, 0.0, 2024-05-08 12:59:30.388
181.0, -31816.009499551, 0.0, 0.0, 0.0, 0.0, 0.0, 0.0, 0.0, 0.004, -0.046, 0.986, 192.0, 0.0, 32.0, 254.0, 144.0, 30.0, 208.0, 0.0, 0.0, 0.0, 1.7151623703883016E9, 0.0, 2024-05-08 12:59:30.388
182.0, -31462.449605756952, 0.0, 0.0, 0.0, 0.0, 0.0, 0.0, 0.0, 0.004, -0.046, 0.986, 192.0, 0.0, 0.0, 0.0, 0.0, 0.0, 0.0, 0.0, 0.0, 0.0, 1.7151623703883204E9, 0.0, 2024-05-08 12:59:30.388
183.0, -32018.359842104896, 0.0, 0.0, 0.0, 0.0, 0.0, 0.0, 0.0, 0.004, -0.046, 0.986, 192.0, 0.0, 0.0, 0.0, 0.0, 0.0, 0.0, 0.0, 0.0, 0.0, 1.715162370388338E9, 0.0, 2024-05-08 12:59:30.388
184.0, -32421.250035911806, 0.0, 0.0, 0.0, 0.0, 0.0, 0.0, 0.0, 0.004, -0.046, 0.986, 192.0, 0.0, 0.0, 0.0, 0.0, 0.0, 0.0, 0.0, 0.0, 0.0, 1.7151623703883636E9, 0.0, 2024-05-08 12:59:30.388
185.0, -31943.190925501698, 0.0, 0.0, 0.0, 0.0, 0.0, 0.0, 0.0, 0.004, -0.046, 0.986, 192.0, 0.0, 0.0, 0.0, 0.0, 0.0, 0.0, 0.0, 0.0, 0.0, 1.7151623703883815E9, 0.0, 2024-05-08 12:59:30.388
186.0, -30999.500274598635, 0.0, 0.0, 0.0, 0.0, 0.0, 0.0, 0.0, 0.004, -0.046, 0.986, 192.0, 0.0, 0.0, 0.0, 0.0, 0.0, 0.0, 0.0, 0.0, 0.0, 1.7151623703883953E9, 0.0, 2024-05-08 12:59:30.388
187.0, -30542.720024909977, 0.0, 0.0, 0.0, 0.0, 0.0, 0.0, 0.0, 0.004, -0.046, 0.986, 192.0, 0.0, 0.0, 0.0, 0.0, 0.0, 0.0, 0.0, 0.0, 0.0, 1.7151623703884091E9, 0.0, 2024-05-08 12:59:30.388
188.0, -31004.261196167612, 0.0, 0.0, 0.0, 0.0, 0.0, 0.0, 0.0, 0.004, -0.046, 0.986, 192.0, 0.0, 0.0, 0.0, 0.0, 0.0, 0.0, 0.0, 0.0, 0.0, 1.7151623703884227E9, 0.0, 2024-05-08 12:59:30.388
189.0, -31318.660833675964, 0.0, 0.0, 0.0, 0.0, 0.0, 0.0, 0.0, 0.004, -0.046, 0.986, 192.0, 0.0, 0.0, 0.0, 0.0, 0.0, 0.0, 0.0, 0.0, 0.0, 1.7151623703884366E9, 0.0, 2024-05-08 12:59:30.388
190.0, -30763.84583280633, 0.0, 0.0, 0.0, 0.0, 0.0, 0.0, 0.0, 0.004, -0.046, 0.986, 192.0, 0.0, 0.0, 0.0, 0.0, 0.0, 0.0, 0.0, 0.0, 0.0, 1.7151623703884501E9, 0.0, 2024-05-08 12:59:30.388
191.0, -29778.737399427584, 0.0, 0.0, 0.0, 0.0, 0.0, 0.0, 0.0, -0.002, -0.048, 0.992, 192.0, 255.0, 240.0, 254.0, 128.0, 31.0, 0.0, 0.0, 0.0, 0.0, 1.7151623703884656E9, 0.0, 2024-05-08 12:59:30.388
192.0, -29311.36242286711, 0.0, 0.0, 0.0, 0.0, 0.0, 0.0, 0.0, -0.002, -0.048, 0.992, 192.0, 0.0, 0.0, 0.0, 0.0, 0.0, 0.0, 0.0, 0.0, 0.0, 1.715162370388481E9, 0.0, 2024-05-08 12:59:30.388
193.0, -29815.61777777884, 0.0, 0.0, 0.0, 0.0, 0.0, 0.0, 0.0, -0.002, -0.048, 0.992, 192.0, 0.0, 0.0, 0.0, 0.0, 0.0, 0.0, 0.0, 0.0, 0.0, 1.7151623703884945E9, 0.0, 2024-05-08 12:59:30.388
194.0, -30239.07157648463, 0.0, 0.0, 0.0, 0.0, 0.0, 0.0, 0.0, -0.002, -0.048, 0.992, 192.0, 0.0, 0.0, 0.0, 0.0, 0.0, 0.0, 0.0, 0.0, 0.0, 1.7151623703885083E9, 0.0, 2024-05-08 12:59:30.388
195.0, -29779.47500699461, 0.0, 0.0, 0.0, 0.0, 0.0, 0.0, 0.0, -0.002, -0.048, 0.992, 192.0, 0.0, 0.0, 0.0, 0.0, 0.0, 0.0, 0.0, 0.0, 0.0, 1.7151623703885553E9, 0.0, 2024-05-08 12:59:30.388
196.0, -28892.24486258565, 0.0, 0.0, 0.0, 0.0, 0.0, 0.0, 0.0, -0.002, -0.048, 0.992, 192.0, 0.0, 0.0, 0.0, 0.0, 0.0, 0.0, 0.0, 0.0, 0.0, 1.7151623703885694E9, 0.0, 2024-05-08 12:59:30.388
197.0, -28610.545827215414, 0.0, 0.0, 0.0, 0.0, 0.0, 0.0, 0.0, -0.002, -0.048, 0.992, 192.0, 0.0, 0.0, 0.0, 0.0, 0.0, 0.0, 0.0, 0.0, 0.0, 1.7151623703885832E9, 0.0, 2024-05-08 12:59:30.388
198.0, -29363.754911870354, 0.0, 0.0, 0.0, 0.0, 0.0, 0.0, 0.0, -0.002, -0.048, 0.992, 192.0, 0.0, 0.0, 0.0, 0.0, 0.0, 0.0, 0.0, 0.0, 0.0, 1.715162370388599E9, 0.0, 2024-05-08 12:59:30.388
199.0, -29968.92839299779, 0.0, 0.0, 0.0, 0.0, 0.0, 0.0, 0.0, -0.002, -0.048, 0.992, 192.0, 0.0, 0.0, 0.0, 0.0, 0.0, 0.0, 0.0, 0.0, 0.0, 1.7151623703886125E9, 0.0, 2024-05-08 12:59:30.388
200.0, -29720.4664016326, 0.0, 0.0, 0.0, 0.0, 0.0, 0.0, 0.0, -0.002, -0.048, 0.992, 192.0, 0.0, 0.0, 0.0, 0.0, 0.0, 0.0, 0.0, 0.0, 0.0, 1.7151623703886263E9, 0.0, 2024-05-08 12:59:30.388
201.0, -28970.341857712494, 0.0, 0.0, 0.0, 0.0, 0.0, 0.0, 0.0, 0.002, -0.052000000000000005, 0.994, 192.0, 0.0, 16.0, 254.0, 96.0, 31.0, 16.0, 0.0, 0.0, 0.0, 1.7151623703886404E9, 0.0, 2024-05-08 12:59:30.388
202.0, -28668.638011054758, 0.0, 0.0, 0.0, 0.0, 0.0, 0.0, 0.0, 0.002, -0.052000000000000005, 0.994, 192.0, 0.0, 0.0, 0.0, 0.0, 0.0, 0.0, 0.0, 0.0, 0.0, 1.7151623703886547E9, 0.0, 2024-05-08 12:59:30.388
203.0, -29316.548027580742, 0.0, 0.0, 0.0, 0.0, 0.0, 0.0, 0.0, 0.002, -0.052000000000000005, 0.994, 192.0, 0.0, 0.0, 0.0, 0.0, 0.0, 0.0, 0.0, 0.0, 0.0, 1.7151623703886683E9, 0.0, 2024-05-08 12:59:30.388
204.0, -29808.107591641856, 0.0, 0.0, 0.0, 0.0, 0.0, 0.0, 0.0, 0.002, -0.052000000000000005, 0.994, 192.0, 0.0, 0.0, 0.0, 0.0, 0.0, 0.0, 0.0, 0.0, 0.0, 1.7151623703886843E9, 0.0, 2024-05-08 12:59:30.388
205.0, -29390.82287440573, 0.0, 0.0, 0.0, 0.0, 0.0, 0.0, 0.0, 0.002, -0.052000000000000005, 0.994, 192.0, 0.0, 0.0, 0.0, 0.0, 0.0, 0.0, 0.0, 0.0, 0.0, 1.715162370388698E9, 0.0, 2024-05-08 12:59:30.388
206.0, -28510.231198099995, 0.0, 0.0, 0.0, 0.0, 0.0, 0.0, 0.0, 0.002, -0.052000000000000005, 0.994, 192.0, 0.0, 0.0, 0.0, 0.0, 0.0, 0.0, 0.0, 0.0, 0.0, 1.715162370388712E9, 0.0, 2024-05-08 12:59:30.388
207.0, -28134.788946484205, 0.0, 0.0, 0.0, 0.0, 0.0, 0.0, 0.0, 0.002, -0.052000000000000005, 0.994, 192.0, 0.0, 0.0, 0.0, 0.0, 0.0, 0.0, 0.0, 0.0, 0.0, 1.7151623703887255E9, 0.0, 2024-05-08 12:59:30.388
208.0, -28660.971362706587, 0.0, 0.0, 0.0, 0.0, 0.0, 0.0, 0.0, 0.002, -0.052000000000000005, 0.994, 192.0, 0.0, 0.0, 0.0, 0.0, 0.0, 0.0, 0.0, 0.0, 0.0, 1.7151623703887398E9, 0.0, 2024-05-08 12:59:30.388
209.0, -29026.69060548432, 0.0, 0.0, 0.0, 0.0, 0.0, 0.0, 0.0, 0.002, -0.052000000000000005, 0.994, 192.0, 0.0, 0.0, 0.0, 0.0, 0.0, 0.0, 0.0, 0.0, 0.0, 1.7151623703887537E9, 0.0, 2024-05-08 12:59:30.388
210.0, -28542.328303137816, 0.0, 0.0, 0.0, 0.0, 0.0, 0.0, 0.0, 0.002, -0.052000000000000005, 0.994, 192.0, 0.0, 0.0, 0.0, 0.0, 0.0, 0.0, 0.0, 0.0, 0.0, 1.7151623703887672E9, 0.0, 2024-05-08 12:59:30.388
211.0, -27591.97683238707, 0.0, 0.0, 0.0, 0.0, 0.0, 0.0, 0.0, 0.006, -0.052000000000000005, 0.998, 192.0, 0.0, 48.0, 254.0, 96.0, 31.0, 48.0, 0.0, 0.0, 0.0, 1.7151623703887835E9, 0.0, 2024-05-08 12:59:30.388
212.0, -27109.089745174617, 0.0, 0.0, 0.0, 0.0, 0.0, 0.0, 0.0, 0.006, -0.052000000000000005, 0.998, 192.0, 0.0, 0.0, 0.0, 0.0, 0.0, 0.0, 0.0, 0.0, 0.0, 1.7151623703887985E9, 0.0, 2024-05-08 12:59:30.388
213.0, -27512.91871224865, 0.0, 0.0, 0.0, 0.0, 0.0, 0.0, 0.0, 0.006, -0.052000000000000005, 0.998, 192.0, 0.0, 0.0, 0.0, 0.0, 0.0, 0.0, 0.0, 0.0, 0.0, 1.7151623703888333E9, 0.0, 2024-05-08 12:59:30.388
214.0, -27751.434177331234, 0.0, 0.0, 0.0, 0.0, 0.0, 0.0, 0.0, 0.006, -0.052000000000000005, 0.998, 192.0, 0.0, 0.0, 0.0, 0.0, 0.0, 0.0, 0.0, 0.0, 0.0, 1.7151623703888485E9, 0.0, 2024-05-08 12:59:30.388
215.0, -27121.919646491962, 0.0, 0.0, 0.0, 0.0, 0.0, 0.0, 0.0, 0.006, -0.052000000000000005, 0.998, 192.0, 0.0, 0.0, 0.0, 0.0, 0.0, 0.0, 0.0, 0.0, 0.0, 1.7151623703888624E9, 0.0, 2024-05-08 12:59:30.388
216.0, -26024.806621647673, 0.0, 0.0, 0.0, 0.0, 0.0, 0.0, 0.0, 0.006, -0.052000000000000005, 0.998, 192.0, 0.0, 0.0, 0.0, 0.0, 0.0, 0.0, 0.0, 0.0, 0.0, 1.7151623703888764E9, 0.0, 2024-05-08 12:59:30.388
217.0, -25352.175575754118, 0.0, 0.0, 0.0, 0.0, 0.0, 0.0, 0.0, 0.006, -0.052000000000000005, 0.998, 192.0, 0.0, 0.0, 0.0, 0.0, 0.0, 0.0, 0.0, 0.0, 0.0, 1.7151623703888924E9, 0.0, 2024-05-08 12:59:30.388
218.0, -25515.09744108885, 0.0, 0.0, 0.0, 0.0, 0.0, 0.0, 0.0, 0.006, -0.052000000000000005, 0.998, 192.0, 0.0, 0.0, 0.0, 0.0, 0.0, 0.0, 0.0, 0.0, 0.0, 1.7151623703889065E9, 0.0, 2024-05-08 12:59:30.388
219.0, -25515.99151086706, 0.0, 0.0, 0.0, 0.0, 0.0, 0.0, 0.0, 0.006, -0.052000000000000005, 0.998, 192.0, 0.0, 0.0, 0.0, 0.0, 0.0, 0.0, 0.0, 0.0, 0.0, 1.7151623703889203E9, 0.0, 2024-05-08 12:59:30.388
220.0, -24697.627091124905, 0.0, 0.0, 0.0, 0.0, 0.0, 0.0, 0.0, 0.006, -0.052000000000000005, 0.998, 192.0, 0.0, 0.0, 0.0, 0.0, 0.0, 0.0, 0.0, 0.0, 0.0, 1.7151623703889344E9, 0.0, 2024-05-08 12:59:30.388
221.0, -23410.300720965948, 0.0, 0.0, 0.0, 0.0, 0.0, 0.0, 0.0, 0.008, -0.052000000000000005, 0.998, 192.0, 0.0, 64.0, 254.0, 96.0, 31.0, 48.0, 0.0, 0.0, 0.0, 1.7151623703889487E9, 0.0, 2024-05-08 12:59:30.388
222.0, -22468.912299741783, 0.0, 0.0, 0.0, 0.0, 0.0, 0.0, 0.0, 0.008, -0.052000000000000005, 0.998, 192.0, 0.0, 0.0, 0.0, 0.0, 0.0, 0.0, 0.0, 0.0, 0.0, 1.7151623703889632E9, 0.0, 2024-05-08 12:59:30.388
223.0, -22279.68243118315, 0.0, 0.0, 0.0, 0.0, 0.0, 0.0, 0.0, 0.008, -0.052000000000000005, 0.998, 192.0, 0.0, 0.0, 0.0, 0.0, 0.0, 0.0, 0.0, 0.0, 0.0, 1.7151623703889775E9, 0.0, 2024-05-08 12:59:30.388
224.0, -21866.622193649077, 0.0, 0.0, 0.0, 0.0, 0.0, 0.0, 0.0, 0.008, -0.052000000000000005, 0.998, 192.0, 0.0, 0.0, 0.0, 0.0, 0.0, 0.0, 0.0, 0.0, 0.0, 1.715162370388994E9, 0.0, 2024-05-08 12:59:30.388
225.0, -20734.3945782655, 0.0, 0.0, 0.0, 0.0, 0.0, 0.0, 0.0, 0.008, -0.052000000000000005, 0.998, 192.0, 0.0, 0.0, 0.0, 0.0, 0.0, 0.0, 0.0, 0.0, 0.0, 1.715162370389008E9, 0.0, 2024-05-08 12:59:30.389
226.0, -19329.833308438458, 0.0, 0.0, 0.0, 0.0, 0.0, 0.0, 0.0, 0.008, -0.052000000000000005, 0.998, 192.0, 0.0, 0.0, 0.0, 0.0, 0.0, 0.0, 0.0, 0.0, 0.0, 1.715162370389022E9, 0.0, 2024-05-08 12:59:30.389
227.0, -18968.003269195946, 0.0, 0.0, 0.0, 0.0, 0.0, 0.0, 0.0, 0.008, -0.052000000000000005, 0.998, 192.0, 0.0, 0.0, 0.0, 0.0, 0.0, 0.0, 0.0, 0.0, 0.0, 1.7151623708656073E9, 0.0, 2024-05-08 12:59:30.865
228.0, -19607.151401895455, 0.0, 0.0, 0.0, 0.0, 0.0, 0.0, 0.0, 0.008, -0.052000000000000005, 0.998, 192.0, 0.0, 0.0, 0.0, 0.0, 0.0, 0.0, 0.0, 0.0, 0.0, 1.715162370865698E9, 0.0, 2024-05-08 12:59:30.865
229.0, -20320.104994786383, 0.0, 0.0, 0.0, 0.0, 0.0, 0.0, 0.0, 0.008, -0.052000000000000005, 0.998, 192.0, 0.0, 0.0, 0.0, 0.0, 0.0, 0.0, 0.0, 0.0, 0.0, 1.7151623708657444E9, 0.0, 2024-05-08 12:59:30.865
230.0, -20397.68789979075, 0.0, 0.0, 0.0, 0.0, 0.0, 0.0, 0.0, 0.008, -0.052000000000000005, 0.998, 192.0, 0.0, 0.0, 0.0, 0.0, 0.0, 0.0, 0.0, 0.0, 0.0, 1.7151623708658488E9, 0.0, 2024-05-08 12:59:30.865
231.0, -20008.365214868216, 0.0, 0.0, 0.0, 0.0, 0.0, 0.0, 0.0, 0.008, -0.044, 0.994, 192.0, 0.0, 64.0, 254.0, 160.0, 31.0, 16.0, 0.0, 0.0, 0.0, 1.71516237086589E9, 0.0, 2024-05-08 12:59:30.865
232.0, -19956.33035377626, 0.0, 0.0, 0.0, 0.0, 0.0, 0.0, 0.0, 0.008, -0.044, 0.994, 192.0, 0.0, 0.0, 0.0, 0.0, 0.0, 0.0, 0.0, 0.0, 0.0, 1.7151623708659427E9, 0.0, 2024-05-08 12:59:30.865
233.0, -20675.00599324775, 0.0, 0.0, 0.0, 0.0, 0.0, 0.0, 0.0, 0.008, -0.044, 0.994, 192.0, 0.0, 0.0, 0.0, 0.0, 0.0, 0.0, 0.0, 0.0, 0.0, 1.7151623708659873E9, 0.0, 2024-05-08 12:59:30.865
234.0, -21321.709015573146, 0.0, 0.0, 0.0, 0.0, 0.0, 0.0, 0.0, 0.008, -0.044, 0.994, 192.0, 0.0, 0.0, 0.0, 0.0, 0.0, 0.0, 0.0, 0.0, 0.0, 1.7151623708660383E9, 0.0, 2024-05-08 12:59:30.866
235.0, -21186.503313362995, 0.0, 0.0, 0.0, 0.0, 0.0, 0.0, 0.0, 0.008, -0.044, 0.994, 192.0, 0.0, 0.0, 0.0, 0.0, 0.0, 0.0, 0.0, 0.0, 0.0, 1.7151623708660698E9, 0.0, 2024-05-08 12:59:30.866
236.0, -20588.482390461253, 0.0, 0.0, 0.0, 0.0, 0.0, 0.0, 0.0, 0.008, -0.044, 0.994, 192.0, 0.0, 0.0, 0.0, 0.0, 0.0, 0.0, 0.0, 0.0, 0.0, 1.715162370866094E9, 0.0, 2024-05-08 12:59:30.866
237.0, -20376.654908258308, 0.0, 0.0, 0.0, 0.0, 0.0, 0.0, 0.0, 0.008, -0.044, 0.994, 192.0, 0.0, 0.0, 0.0, 0.0, 0.0, 0.0, 0.0, 0.0, 0.0, 1.71516237086612E9, 0.0, 2024-05-08 12:59:30.866
238.0, -20968.48439794593, 0.0, 0.0, 0.0, 0.0, 0.0, 0.0, 0.0, 0.008, -0.044, 0.994, 192.0, 0.0, 0.0, 0.0, 0.0, 0.0, 0.0, 0.0, 0.0, 0.0, 1.715162370866145E9, 0.0, 2024-05-08 12:59:30.866
239.0, -21502.10994507193, 0.0, 0.0, 0.0, 0.0, 0.0, 0.0, 0.0, 0.008, -0.044, 0.994, 192.0, 0.0, 0.0, 0.0, 0.0, 0.0, 0.0, 0.0, 0.0, 0.0, 1.7151623708661683E9, 0.0, 2024-05-08 12:59:30.866
240.0, -21304.922855487213, 0.0, 0.0, 0.0, 0.0, 0.0, 0.0, 0.0, 0.008, -0.044, 0.994, 192.0, 0.0, 0.0, 0.0, 0.0, 0.0, 0.0, 0.0, 0.0, 0.0, 1.7151623708661926E9, 0.0, 2024-05-08 12:59:30.866
241.0, -20667.071123966114, 0.0, 0.0, 0.0, 0.0, 0.0, 0.0, 0.0, 0.006, -0.048, 0.988, 192.0, 0.0, 48.0, 254.0, 128.0, 30.0, 224.0, 0.0, 0.0, 0.0, 1.7151623708662162E9, 0.0, 2024-05-08 12:59:30.866
242.0, -20414.74228081015, 0.0, 0.0, 0.0, 0.0, 0.0, 0.0, 0.0, 0.006, -0.048, 0.988, 192.0, 0.0, 0.0, 0.0, 0.0, 0.0, 0.0, 0.0, 0.0, 0.0, 1.7151623708662407E9, 0.0, 2024-05-08 12:59:30.866
243.0, -20964.9975258109, 0.0, 0.0, 0.0, 0.0, 0.0, 0.0, 0.0, 0.006, -0.048, 0.988, 192.0, 0.0, 0.0, 0.0, 0.0, 0.0, 0.0, 0.0, 0.0, 0.0, 1.715162370866264E9, 0.0, 2024-05-08 12:59:30.866
244.0, -21488.34127048746, 0.0, 0.0, 0.0, 0.0, 0.0, 0.0, 0.0, 0.006, -0.048, 0.988, 192.0, 0.0, 0.0, 0.0, 0.0, 0.0, 0.0, 0.0, 0.0, 0.0, 1.7151623708663049E9, 0.0, 2024-05-08 12:59:30.866
245.0, -21309.572018333914, 0.0, 0.0, 0.0, 0.0, 0.0, 0.0, 0.0, 0.006, -0.048, 0.988, 192.0, 0.0, 0.0, 0.0, 0.0, 0.0, 0.0, 0.0, 0.0, 0.0, 1.7151623708663287E9, 0.0, 2024-05-08 12:59:30.866
246.0, -20686.96417653134, 0.0, 0.0, 0.0, 0.0, 0.0, 0.0, 0.0, 0.006, -0.048, 0.988, 192.0, 0.0, 0.0, 0.0, 0.0, 0.0, 0.0, 0.0, 0.0, 0.0, 1.715162370866352E9, 0.0, 2024-05-08 12:59:30.866
247.0, -20414.94344651025, 0.0, 0.0, 0.0, 0.0, 0.0, 0.0, 0.0, 0.006, -0.048, 0.988, 192.0, 0.0, 0.0, 0.0, 0.0, 0.0, 0.0, 0.0, 0.0, 0.0, 1.715162370866413E9, 0.0, 2024-05-08 12:59:30.866
248.0, -20990.47851448995, 0.0, 0.0, 0.0, 0.0, 0.0, 0.0, 0.0, 0.006, -0.048, 0.988, 192.0, 0.0, 0.0, 0.0, 0.0, 0.0, 0.0, 0.0, 0.0, 0.0, 1.7151623708664365E9, 0.0, 2024-05-08 12:59:30.866
249.0, -21523.768785449123, 0.0, 0.0, 0.0, 0.0, 0.0, 0.0, 0.0, 0.006, -0.048, 0.988, 192.0, 0.0, 0.0, 0.0, 0.0, 0.0, 0.0, 0.0, 0.0, 0.0, 1.71516237086646E9, 0.0, 2024-05-08 12:59:30.866
250.0, -21334.22599246812, 0.0, 0.0, 0.0, 0.0, 0.0, 0.0, 0.0, 0.006, -0.048, 0.988, 192.0, 0.0, 0.0, 0.0, 0.0, 0.0, 0.0, 0.0, 0.0, 0.0, 1.7151623708664849E9, 0.0, 2024-05-08 12:59:30.866
251.0, -20673.3296124136, 0.0, 0.0, 0.0, 0.0, 0.0, 0.0, 0.0, 0.004, -0.048, 0.982, 192.0, 0.0, 32.0, 254.0, 128.0, 30.0, 176.0, 0.0, 0.0, 0.0, 1.7151623708665092E9, 0.0, 2024-05-08 12:59:30.866
252.0, -20319.00975930807, 0.0, 0.0, 0.0, 0.0, 0.0, 0.0, 0.0, 0.004, -0.048, 0.982, 192.0, 0.0, 0.0, 0.0, 0.0, 0.0, 0.0, 0.0, 0.0, 0.0, 1.7151623708665335E9, 0.0, 2024-05-08 12:59:30.866
