%OpenBCI Raw EXG Data
%Number of channels = 8
%Sample Rate = 250 Hz
%Board = OpenBCI_GUI$BoardCytonSerial
Sample Index, EXG Channel 0, EXG Channel 1, EXG Channel 2, EXG Channel 3, EXG Channel 4, EXG Channel 5, EXG Channel 6, EXG Channel 7, Accel Channel 0, Accel Channel 1, Accel Channel 2, Other, Other, Other, Other, Other, Other, Other, Analog Channel 0, Analog Channel 1, Analog Channel 2, Timestamp, Other, Timestamp (Formatted)
0.0, -7703.171098610294, 0.0, 0.0, 0.0, 0.0, 0.0, 0.0, 0.0, 0.0, 0.0, 0.0, 192.0, 0.0, 0.0, 0.0, 0.0, 0.0, 0.0, 0.0, 0.0, 0.0, 1.715162449643562E9, 0.0, 2024-05-08 13:00:49.643
1.0, -7462.800438737922, 0.0, 0.0, 0.0, 0.0, 0.0, 0.0, 0.0, 0.0, 0.0, 0.0, 192.0, 0.0, 0.0, 0.0, 0.0, 0.0, 0.0, 0.0, 0.0, 0.0, 1.7151624496435938E9, 0.0, 2024-05-08 13:00:49.643
2.0, -7713.408197570825, 0.0, 0.0, 0.0, 0.0, 0.0, 0.0, 0.0, 0.0, 0.0, 0.0, 192.0, 0.0, 0.0, 0.0, 0.0, 0.0, 0.0, 0.0, 0.0, 0.0, 1.7151624496436093E9, 0.0, 2024-05-08 13:00:49.643
3.0, -7924.699237906842, 0.0, 0.0, 0.0, 0.0, 0.0, 0.0, 0.0, 0.0, 0.0, 0.0, 192.0, 0.0, 0.0, 0.0, 0.0, 0.0, 0.0, 0.0, 0.0, 0.0, 1.7151624496436238E9, 0.0, 2024-05-08 13:00:49.643
4.0, -7781.223390248227, 0.0, 0.0, 0.0, 0.0, 0.0, 0.0, 0.0, 0.004, -0.04, 0.988, 192.0, 0.0, 32.0, 254.0, 192.0, 30.0, 224.0, 0.0, 0.0, 0.0, 1.7151624496436384E9, 0.0, 2024-05-08 13:00:49.643
5.0, -7403.925943842643, 0.0, 0.0, 0.0, 0.0, 0.0, 0.0, 0.0, 0.004, -0.04, 0.988, 192.0, 0.0, 0.0, 0.0, 0.0, 0.0, 0.0, 0.0, 0.0, 0.0, 1.7151624496436574E9, 0.0, 2024-05-08 13:00:49.643
6.0, -7202.7602437448795, 0.0, 0.0, 0.0, 0.0, 0.0, 0.0, 0.0, 0.004, -0.04, 0.988, 192.0, 0.0, 0.0, 0.0, 0.0, 0.0, 0.0, 0.0, 0.0, 0.0, 1.715162449643672E9, 0.0, 2024-05-08 13:00:49.643
7.0, -7444.494360029025, 0.0, 0.0, 0.0, 0.0, 0.0, 0.0, 0.0, 0.004, -0.04, 0.988, 192.0, 0.0, 0.0, 0.0, 0.0, 0.0, 0.0, 0.0, 0.0, 0.0, 1.7151624496437056E9, 0.0, 2024-05-08 13:00:49.643
8.0, -7698.991322397152, 0.0, 0.0, 0.0, 0.0, 0.0, 0.0, 0.0, 0.004, -0.04, 0.988, 192.0, 0.0, 0.0, 0.0, 0.0, 0.0, 0.0, 0.0, 0.0, 0.0, 1.7151624496438775E9, 0.0, 2024-05-08 13:00:49.643
9.0, -7621.31901041496, 0.0, 0.0, 0.0, 0.0, 0.0, 0.0, 0.0, 0.004, -0.04, 0.988, 192.0, 0.0, 0.0, 0.0, 0.0, 0.0, 0.0, 0.0, 0.0, 0.0, 1.7151624496438937E9, 0.0, 2024-05-08 13:00:49.643
10.0, -7328.220585372518, 0.0, 0.0, 0.0, 0.0, 0.0, 0.0, 0.0, 0.004, -0.04, 0.988, 192.0, 0.0, 0.0, 0.0, 0.0, 0.0, 0.0, 0.0, 0.0, 0.0, 1.7151624496439085E9, 0.0, 2024-05-08 13:00:49.643
11.0, -7230.09642721372, 0.0, 0.0, 0.0, 0.0, 0.0, 0.0, 0.0, 0.004, -0.04, 0.988, 192.0, 0.0, 0.0, 0.0, 0.0, 0.0, 0.0, 0.0, 0.0, 0.0, 1.7151624496439257E9, 0.0, 2024-05-08 13:00:49.643
12.0, -7571.809896446454, 0.0, 0.0, 0.0, 0.0, 0.0, 0.0, 0.0, 0.004, -0.04, 0.988, 192.0, 0.0, 0.0, 0.0, 0.0, 0.0, 0.0, 0.0, 0.0, 0.0, 1.71516244964394E9, 0.0, 2024-05-08 13:00:49.643
13.0, -7886.857734544008, 0.0, 0.0, 0.0, 0.0, 0.0, 0.0, 0.0, 0.004, -0.04, 0.988, 192.0, 0.0, 0.0, 0.0, 0.0, 0.0, 0.0, 0.0, 0.0, 0.0, 1.7151624496439545E9, 0.0, 2024-05-08 13:00:49.643
14.0, -7829.570213505056, 0.0, 0.0, 0.0, 0.0, 0.0, 0.0, 0.0, 0.006, -0.05, 0.986, 192.0, 0.0, 48.0, 254.0, 112.0, 30.0, 208.0, 0.0, 0.0, 0.0, 1.7151624496439712E9, 0.0, 2024-05-08 13:00:49.643
15.0, -7527.665201147223, 0.0, 0.0, 0.0, 0.0, 0.0, 0.0, 0.0, 0.006, -0.05, 0.986, 192.0, 0.0, 0.0, 0.0, 0.0, 0.0, 0.0, 0.0, 0.0, 0.0, 1.7151624496439905E9, 0.0, 2024-05-08 13:00:49.643
16.0, -7380.121335997741, 0.0, 0.0, 0.0, 0.0, 0.0, 0.0, 0.0, 0.006, -0.05, 0.986, 192.0, 0.0, 0.0, 0.0, 0.0, 0.0, 0.0, 0.0, 0.0, 0.0, 1.7151624496440077E9, 0.0, 2024-05-08 13:00:49.644
17.0, -7661.820371367976, 0.0, 0.0, 0.0, 0.0, 0.0, 0.0, 0.0, 0.006, -0.05, 0.986, 192.0, 0.0, 0.0, 0.0, 0.0, 0.0, 0.0, 0.0, 0.0, 0.0, 1.715162449644025E9, 0.0, 2024-05-08 13:00:49.644
18.0, -7932.120017066004, 0.0, 0.0, 0.0, 0.0, 0.0, 0.0, 0.0, 0.006, -0.05, 0.986, 192.0, 0.0, 0.0, 0.0, 0.0, 0.0, 0.0, 0.0, 0.0, 0.0, 1.715162449644045E9, 0.0, 2024-05-08 13:00:49.644
19.0, -7856.794638251619, 0.0, 0.0, 0.0, 0.0, 0.0, 0.0, 0.0, 0.006, -0.05, 0.986, 192.0, 0.0, 0.0, 0.0, 0.0, 0.0, 0.0, 0.0, 0.0, 0.0, 1.715162449644063E9, 0.0, 2024-05-08 13:00:49.644
20.0, -7554.531997982503, 0.0, 0.0, 0.0, 0.0, 0.0, 0.0, 0.0, 0.006, -0.05, 0.986, 192.0, 0.0, 0.0, 0.0, 0.0, 0.0, 0.0, 0.0, 0.0, 0.0, 1.7151624496440804E9, 0.0, 2024-05-08 13:00:49.644
21.0, -7422.097912084808, 0.0, 0.0, 0.0, 0.0, 0.0, 0.0, 0.0, 0.006, -0.05, 0.986, 192.0, 0.0, 0.0, 0.0, 0.0, 0.0, 0.0, 0.0, 0.0, 0.0, 1.715162449644099E9, 0.0, 2024-05-08 13:00:49.644
22.0, -7691.369377537892, 0.0, 0.0, 0.0, 0.0, 0.0, 0.0, 0.0, 0.006, -0.05, 0.986, 192.0, 0.0, 0.0, 0.0, 0.0, 0.0, 0.0, 0.0, 0.0, 0.0, 1.715162449644129E9, 0.0, 2024-05-08 13:00:49.644
23.0, -7903.554487652122, 0.0, 0.0, 0.0, 0.0, 0.0, 0.0, 0.0, 0.006, -0.05, 0.986, 192.0, 0.0, 0.0, 0.0, 0.0, 0.0, 0.0, 0.0, 0.0, 0.0, 1.7151624496441472E9, 0.0, 2024-05-08 13:00:49.644
24.0, -7705.540383522557, 0.0, 0.0, 0.0, 0.0, 0.0, 0.0, 0.0, 0.006, -0.046, 0.99, 192.0, 0.0, 48.0, 254.0, 144.0, 30.0, 240.0, 0.0, 0.0, 0.0, 1.7151624496442535E9, 0.0, 2024-05-08 13:00:49.644
25.0, -7245.094447743231, 0.0, 0.0, 0.0, 0.0, 0.0, 0.0, 0.0, 0.006, -0.046, 0.99, 192.0, 0.0, 0.0, 0.0, 0.0, 0.0, 0.0, 0.0, 0.0, 0.0, 1.7151624496442785E9, 0.0, 2024-05-08 13:00:49.644
26.0, -6936.126284137522, 0.0, 0.0, 0.0, 0.0, 0.0, 0.0, 0.0, 0.006, -0.046, 0.99, 192.0, 0.0, 0.0, 0.0, 0.0, 0.0, 0.0, 0.0, 0.0, 0.0, 1.7151624496443236E9, 0.0, 2024-05-08 13:00:49.644
27.0, -7054.3670123060965, 0.0, 0.0, 0.0, 0.0, 0.0, 0.0, 0.0, 0.006, -0.046, 0.99, 192.0, 0.0, 0.0, 0.0, 0.0, 0.0, 0.0, 0.0, 0.0, 0.0, 1.715162449644338E9, 0.0, 2024-05-08 13:00:49.644
28.0, -7186.80109820379, 0.0, 0.0, 0.0, 0.0, 0.0, 0.0, 0.0, 0.006, -0.046, 0.99, 192.0, 0.0, 0.0, 0.0, 0.0, 0.0, 0.0, 0.0, 0.0, 0.0, 1.715162449644353E9, 0.0, 2024-05-08 13:00:49.644
29.0, -7012.681008896949, 0.0, 0.0, 0.0, 0.0, 0.0, 0.0, 0.0, 0.006, -0.046, 0.99, 192.0, 0.0, 0.0, 0.0, 0.0, 0.0, 0.0, 0.0, 0.0, 0.0, 1.7151624496444423E9, 0.0, 2024-05-08 13:00:49.644
30.0, -6605.0298935210585, 0.0, 0.0, 0.0, 0.0, 0.0, 0.0, 0.0, 0.006, -0.046, 0.99, 192.0, 0.0, 0.0, 0.0, 0.0, 0.0, 0.0, 0.0, 0.0, 0.0, 1.715162449644458E9, 0.0, 2024-05-08 13:00:49.644
31.0, -6356.523198666954, 0.0, 0.0, 0.0, 0.0, 0.0, 0.0, 0.0, 0.006, -0.046, 0.99, 192.0, 0.0, 0.0, 0.0, 0.0, 0.0, 0.0, 0.0, 0.0, 0.0, 1.7151624496444745E9, 0.0, 2024-05-08 13:00:49.644
32.0, -6544.05433464698, 0.0, 0.0, 0.0, 0.0, 0.0, 0.0, 0.0, 0.006, -0.046, 0.99, 192.0, 0.0, 0.0, 0.0, 0.0, 0.0, 0.0, 0.0, 0.0, 0.0, 1.7151624496444895E9, 0.0, 2024-05-08 13:00:49.644
33.0, -6790.102337611001, 0.0, 0.0, 0.0, 0.0, 0.0, 0.0, 0.0, 0.006, -0.046, 0.99, 192.0, 0.0, 0.0, 0.0, 0.0, 0.0, 0.0, 0.0, 0.0, 0.0, 1.7151624496445038E9, 0.0, 2024-05-08 13:00:49.644
34.0, -6705.56804008103, 0.0, 0.0, 0.0, 0.0, 0.0, 0.0, 0.0, 0.008, -0.04, 0.988, 192.0, 0.0, 64.0, 254.0, 192.0, 30.0, 224.0, 0.0, 0.0, 0.0, 1.7151624496445196E9, 0.0, 2024-05-08 13:00:49.644
35.0, -6334.685544334119, 0.0, 0.0, 0.0, 0.0, 0.0, 0.0, 0.0, 0.008, -0.04, 0.988, 192.0, 0.0, 0.0, 0.0, 0.0, 0.0, 0.0, 0.0, 0.0, 0.0, 1.715162449644535E9, 0.0, 2024-05-08 13:00:49.644
36.0, -6072.097250473172, 0.0, 0.0, 0.0, 0.0, 0.0, 0.0, 0.0, 0.008, -0.04, 0.988, 192.0, 0.0, 0.0, 0.0, 0.0, 0.0, 0.0, 0.0, 0.0, 0.0, 1.7151624496445518E9, 0.0, 2024-05-08 13:00:49.644
37.0, -6207.660580594609, 0.0, 0.0, 0.0, 0.0, 0.0, 0.0, 0.0, 0.008, -0.04, 0.988, 192.0, 0.0, 0.0, 0.0, 0.0, 0.0, 0.0, 0.0, 0.0, 0.0, 1.7151624496445675E9, 0.0, 2024-05-08 13:00:49.644
38.0, -6363.698108637108, 0.0, 0.0, 0.0, 0.0, 0.0, 0.0, 0.0, 0.008, -0.04, 0.988, 192.0, 0.0, 0.0, 0.0, 0.0, 0.0, 0.0, 0.0, 0.0, 0.0, 1.7151624496445844E9, 0.0, 2024-05-08 13:00:49.644
39.0, -6226.5478046593435, 0.0, 0.0, 0.0, 0.0, 0.0, 0.0, 0.0, 0.008, -0.04, 0.988, 192.0, 0.0, 0.0, 0.0, 0.0, 0.0, 0.0, 0.0, 0.0, 0.0, 1.7151624496445992E9, 0.0, 2024-05-08 13:00:49.644
40.0, -5853.273672255716, 0.0, 0.0, 0.0, 0.0, 0.0, 0.0, 0.0, 0.008, -0.04, 0.988, 192.0, 0.0, 0.0, 0.0, 0.0, 0.0, 0.0, 0.0, 0.0, 0.0, 1.7151624496446133E9, 0.0, 2024-05-08 13:00:49.644
41.0, -5618.289782797073, 0.0, 0.0, 0.0, 0.0, 0.0, 0.0, 0.0, 0.008, -0.04, 0.988, 192.0, 0.0, 0.0, 0.0, 0.0, 0.0, 0.0, 0.0, 0.0, 0.0, 1.715162449644627E9, 0.0, 2024-05-08 13:00:49.644
42.0, -5780.921075453887, 0.0, 0.0, 0.0, 0.0, 0.0, 0.0, 0.0, 0.008, -0.04, 0.988, 192.0, 0.0, 0.0, 0.0, 0.0, 0.0, 0.0, 0.0, 0.0, 0.0, 1.715162449644642E9, 0.0, 2024-05-08 13:00:49.644
43.0, -5952.515417637279, 0.0, 0.0, 0.0, 0.0, 0.0, 0.0, 0.0, 0.008, -0.04, 0.988, 192.0, 0.0, 0.0, 0.0, 0.0, 0.0, 0.0, 0.0, 0.0, 0.0, 1.7151624496446748E9, 0.0, 2024-05-08 13:00:49.644
44.0, -5812.705256069334, 0.0, 0.0, 0.0, 0.0, 0.0, 0.0, 0.0, 0.008, -0.046, 0.99, 192.0, 0.0, 64.0, 254.0, 144.0, 30.0, 240.0, 0.0, 0.0, 0.0, 1.7151624496447868E9, 0.0, 2024-05-08 13:00:49.644
45.0, -5434.849016052368, 0.0, 0.0, 0.0, 0.0, 0.0, 0.0, 0.0, 0.008, -0.046, 0.99, 192.0, 0.0, 0.0, 0.0, 0.0, 0.0, 0.0, 0.0, 0.0, 0.0, 1.7151624496448069E9, 0.0, 2024-05-08 13:00:49.644
46.0, -5206.391835974674, 0.0, 0.0, 0.0, 0.0, 0.0, 0.0, 0.0, 0.008, -0.046, 0.99, 192.0, 0.0, 0.0, 0.0, 0.0, 0.0, 0.0, 0.0, 0.0, 0.0, 1.7151624496448207E9, 0.0, 2024-05-08 13:00:49.644
47.0, -5384.289370094463, 0.0, 0.0, 0.0, 0.0, 0.0, 0.0, 0.0, 0.008, -0.046, 0.99, 192.0, 0.0, 0.0, 0.0, 0.0, 0.0, 0.0, 0.0, 0.0, 0.0, 1.7151624496448352E9, 0.0, 2024-05-08 13:00:49.644
48.0, -5574.949750298232, 0.0, 0.0, 0.0, 0.0, 0.0, 0.0, 0.0, 0.008, -0.046, 0.99, 192.0, 0.0, 0.0, 0.0, 0.0, 0.0, 0.0, 0.0, 0.0, 0.0, 1.7151624496448495E9, 0.0, 2024-05-08 13:00:49.644
49.0, -5452.283376727507, 0.0, 0.0, 0.0, 0.0, 0.0, 0.0, 0.0, 0.008, -0.046, 0.99, 192.0, 0.0, 0.0, 0.0, 0.0, 0.0, 0.0, 0.0, 0.0, 0.0, 1.715162449644864E9, 0.0, 2024-05-08 13:00:49.644
50.0, -5098.365855022175, 0.0, 0.0, 0.0, 0.0, 0.0, 0.0, 0.0, 0.008, -0.046, 0.99, 192.0, 0.0, 0.0, 0.0, 0.0, 0.0, 0.0, 0.0, 0.0, 0.0, 1.715162449644878E9, 0.0, 2024-05-08 13:00:49.644
51.0, -4891.612218810585, 0.0, 0.0, 0.0, 0.0, 0.0, 0.0, 0.0, 0.008, -0.046, 0.99, 192.0, 0.0, 0.0, 0.0, 0.0, 0.0, 0.0, 0.0, 0.0, 0.0, 1.7151624496448953E9, 0.0, 2024-05-08 13:00:49.644
52.0, -5085.468898471463, 0.0, 0.0, 0.0, 0.0, 0.0, 0.0, 0.0, 0.008, -0.046, 0.99, 192.0, 0.0, 0.0, 0.0, 0.0, 0.0, 0.0, 0.0, 0.0, 0.0, 1.7151624496449103E9, 0.0, 2024-05-08 13:00:49.644
53.0, -5286.344025891308, 0.0, 0.0, 0.0, 0.0, 0.0, 0.0, 0.0, 0.008, -0.046, 0.99, 192.0, 0.0, 0.0, 0.0, 0.0, 0.0, 0.0, 0.0, 0.0, 0.0, 1.7151624496449242E9, 0.0, 2024-05-08 13:00:49.644
54.0, -5170.427879146085, 0.0, 0.0, 0.0, 0.0, 0.0, 0.0, 0.0, 0.004, -0.044, 0.992, 192.0, 0.0, 32.0, 254.0, 160.0, 31.0, 0.0, 0.0, 0.0, 0.0, 1.7151624496449378E9, 0.0, 2024-05-08 13:00:49.644
55.0, -4826.725104656828, 0.0, 0.0, 0.0, 0.0, 0.0, 0.0, 0.0, 0.004, -0.044, 0.992, 192.0, 0.0, 0.0, 0.0, 0.0, 0.0, 0.0, 0.0, 0.0, 0.0, 1.7151624496449523E9, 0.0, 2024-05-08 13:00:49.644
56.0, -4630.745009272696, 0.0, 0.0, 0.0, 0.0, 0.0, 0.0, 0.0, 0.004, -0.044, 0.992, 192.0, 0.0, 0.0, 0.0, 0.0, 0.0, 0.0, 0.0, 0.0, 0.0, 1.7151624496449664E9, 0.0, 2024-05-08 13:00:49.644
57.0, -4823.260584266256, 0.0, 0.0, 0.0, 0.0, 0.0, 0.0, 0.0, 0.004, -0.044, 0.992, 192.0, 0.0, 0.0, 0.0, 0.0, 0.0, 0.0, 0.0, 0.0, 0.0, 1.715162449644982E9, 0.0, 2024-05-08 13:00:49.644
58.0, -5021.56526107374, 0.0, 0.0, 0.0, 0.0, 0.0, 0.0, 0.0, 0.004, -0.044, 0.992, 192.0, 0.0, 0.0, 0.0, 0.0, 0.0, 0.0, 0.0, 0.0, 0.0, 1.715162449644996E9, 0.0, 2024-05-08 13:00:49.644
59.0, -4913.606335354607, 0.0, 0.0, 0.0, 0.0, 0.0, 0.0, 0.0, 0.004, -0.044, 0.992, 192.0, 0.0, 0.0, 0.0, 0.0, 0.0, 0.0, 0.0, 0.0, 0.0, 1.7151624496450098E9, 0.0, 2024-05-08 13:00:49.645
60.0, -4554.525560680099, 0.0, 0.0, 0.0, 0.0, 0.0, 0.0, 0.0, 0.004, -0.044, 0.992, 192.0, 0.0, 0.0, 0.0, 0.0, 0.0, 0.0, 0.0, 0.0, 0.0, 1.715162449645024E9, 0.0, 2024-05-08 13:00:49.645
61.0, -4351.079982647894, 0.0, 0.0, 0.0, 0.0, 0.0, 0.0, 0.0, 0.004, -0.044, 0.992, 192.0, 0.0, 0.0, 0.0, 0.0, 0.0, 0.0, 0.0, 0.0, 0.0, 1.715162449645054E9, 0.0, 2024-05-08 13:00:49.645
62.0, -4580.47593599271, 0.0, 0.0, 0.0, 0.0, 0.0, 0.0, 0.0, 0.004, -0.044, 0.992, 192.0, 0.0, 0.0, 0.0, 0.0, 0.0, 0.0, 0.0, 0.0, 0.0, 1.7151624496450682E9, 0.0, 2024-05-08 13:00:49.645
63.0, -4842.48308449782, 0.0, 0.0, 0.0, 0.0, 0.0, 0.0, 0.0, 0.004, -0.044, 0.992, 192.0, 0.0, 0.0, 0.0, 0.0, 0.0, 0.0, 0.0, 0.0, 0.0, 1.715162449645082E9, 0.0, 2024-05-08 13:00:49.645
64.0, -4780.166420956423, 0.0, 0.0, 0.0, 0.0, 0.0, 0.0, 0.0, 0.004, -0.046, 0.992, 192.0, 0.0, 32.0, 254.0, 144.0, 31.0, 0.0, 0.0, 0.0, 0.0, 1.7151624496451387E9, 0.0, 2024-05-08 13:00:49.645
65.0, -4466.325577059457, 0.0, 0.0, 0.0, 0.0, 0.0, 0.0, 0.0, 0.004, -0.046, 0.992, 192.0, 0.0, 0.0, 0.0, 0.0, 0.0, 0.0, 0.0, 0.0, 0.0, 1.7151624496451535E9, 0.0, 2024-05-08 13:00:49.645
66.0, -4351.1246861368045, 0.0, 0.0, 0.0, 0.0, 0.0, 0.0, 0.0, 0.004, -0.046, 0.992, 192.0, 0.0, 0.0, 0.0, 0.0, 0.0, 0.0, 0.0, 0.0, 0.0, 1.7151624496451676E9, 0.0, 2024-05-08 13:00:49.645
67.0, -4649.743992059707, 0.0, 0.0, 0.0, 0.0, 0.0, 0.0, 0.0, 0.004, -0.046, 0.992, 192.0, 0.0, 0.0, 0.0, 0.0, 0.0, 0.0, 0.0, 0.0, 0.0, 1.7151624496451817E9, 0.0, 2024-05-08 13:00:49.645
68.0, -4915.059198744202, 0.0, 0.0, 0.0, 0.0, 0.0, 0.0, 0.0, 0.004, -0.046, 0.992, 192.0, 0.0, 0.0, 0.0, 0.0, 0.0, 0.0, 0.0, 0.0, 0.0, 1.7151624496451952E9, 0.0, 2024-05-08 13:00:49.645
69.0, -4861.77263996275, 0.0, 0.0, 0.0, 0.0, 0.0, 0.0, 0.0, 0.004, -0.046, 0.992, 192.0, 0.0, 0.0, 0.0, 0.0, 0.0, 0.0, 0.0, 0.0, 0.0, 1.715162449645209E9, 0.0, 2024-05-08 13:00:49.645
70.0, -4587.181459329303, 0.0, 0.0, 0.0, 0.0, 0.0, 0.0, 0.0, 0.004, -0.046, 0.992, 192.0, 0.0, 0.0, 0.0, 0.0, 0.0, 0.0, 0.0, 0.0, 0.0, 1.7151624496452243E9, 0.0, 2024-05-08 13:00:49.645
71.0, -4461.430545023745, 0.0, 0.0, 0.0, 0.0, 0.0, 0.0, 0.0, 0.004, -0.046, 0.992, 192.0, 0.0, 0.0, 0.0, 0.0, 0.0, 0.0, 0.0, 0.0, 0.0, 1.715162449645238E9, 0.0, 2024-05-08 13:00:49.645
72.0, -4714.6981614468295, 0.0, 0.0, 0.0, 0.0, 0.0, 0.0, 0.0, 0.004, -0.046, 0.992, 192.0, 0.0, 0.0, 0.0, 0.0, 0.0, 0.0, 0.0, 0.0, 0.0, 1.7151624496452515E9, 0.0, 2024-05-08 13:00:49.645
73.0, -4949.391478227553, 0.0, 0.0, 0.0, 0.0, 0.0, 0.0, 0.0, 0.004, -0.046, 0.992, 192.0, 0.0, 0.0, 0.0, 0.0, 0.0, 0.0, 0.0, 0.0, 0.0, 1.7151624496452656E9, 0.0, 2024-05-08 13:00:49.645
74.0, -4864.6783667419395, 0.0, 0.0, 0.0, 0.0, 0.0, 0.0, 0.0, 0.002, -0.044, 0.986, 192.0, 0.0, 16.0, 254.0, 160.0, 30.0, 208.0, 0.0, 0.0, 0.0, 1.7151624496452792E9, 0.0, 2024-05-08 13:00:49.645
75.0, -4542.679136118786, 0.0, 0.0, 0.0, 0.0, 0.0, 0.0, 0.0, 0.002, -0.044, 0.986, 192.0, 0.0, 0.0, 0.0, 0.0, 0.0, 0.0, 0.0, 0.0, 0.0, 1.7151624496452937E9, 0.0, 2024-05-08 13:00:49.645
76.0, -4369.207247401148, 0.0, 0.0, 0.0, 0.0, 0.0, 0.0, 0.0, 0.002, -0.044, 0.986, 192.0, 0.0, 0.0, 0.0, 0.0, 0.0, 0.0, 0.0, 0.0, 0.0, 1.7151624496453073E9, 0.0, 2024-05-08 13:00:49.645
77.0, -4592.657636720853, 0.0, 0.0, 0.0, 0.0, 0.0, 0.0, 0.0, 0.002, -0.044, 0.986, 192.0, 0.0, 0.0, 0.0, 0.0, 0.0, 0.0, 0.0, 0.0, 0.0, 1.7151624496453228E9, 0.0, 2024-05-08 13:00:49.645
78.0, -4830.5696047031415, 0.0, 0.0, 0.0, 0.0, 0.0, 0.0, 0.0, 0.002, -0.044, 0.986, 192.0, 0.0, 0.0, 0.0, 0.0, 0.0, 0.0, 0.0, 0.0, 0.0, 1.7151624496453364E9, 0.0, 2024-05-08 13:00:49.645
79.0, -4779.249999433756, 0.0, 0.0, 0.0, 0.0, 0.0, 0.0, 0.0, 0.002, -0.044, 0.986, 192.0, 0.0, 0.0, 0.0, 0.0, 0.0, 0.0, 0.0, 0.0, 0.0, 1.7151624496453593E9, 0.0, 2024-05-08 13:00:49.645
80.0, -4492.588876794443, 0.0, 0.0, 0.0, 0.0, 0.0, 0.0, 0.0, 0.002, -0.044, 0.986, 192.0, 0.0, 0.0, 0.0, 0.0, 0.0, 0.0, 0.0, 0.0, 0.0, 1.7151624496453729E9, 0.0, 2024-05-08 13:00:49.645
81.0, -4325.040200357461, 0.0, 0.0, 0.0, 0.0, 0.0, 0.0, 0.0, 0.002, -0.044, 0.986, 192.0, 0.0, 0.0, 0.0, 0.0, 0.0, 0.0, 0.0, 0.0, 0.0, 1.7151624496453905E9, 0.0, 2024-05-08 13:00:49.645
82.0, -4541.092162262459, 0.0, 0.0, 0.0, 0.0, 0.0, 0.0, 0.0, 0.002, -0.044, 0.986, 192.0, 0.0, 0.0, 0.0, 0.0, 0.0, 0.0, 0.0, 0.0, 0.0, 1.715162449645408E9, 0.0, 2024-05-08 13:00:49.645
83.0, -4768.275292906201, 0.0, 0.0, 0.0, 0.0, 0.0, 0.0, 0.0, 0.002, -0.044, 0.986, 192.0, 0.0, 0.0, 0.0, 0.0, 0.0, 0.0, 0.0, 0.0, 0.0, 1.7151624496454284E9, 0.0, 2024-05-08 13:00:49.645
84.0, -4679.024777296159, 0.0, 0.0, 0.0, 0.0, 0.0, 0.0, 0.0, 0.002, -0.044, 0.986, 192.0, 0.0, 0.0, 254.0, 128.0, 30.0, 240.0, 0.0, 0.0, 0.0, 1.7151624496454468E9, 0.0, 2024-05-08 13:00:49.645
85.0, -4328.191796325659, 0.0, 0.0, 0.0, 0.0, 0.0, 0.0, 0.0, 0.002, -0.044, 0.986, 192.0, 0.0, 0.0, 0.0, 0.0, 0.0, 0.0, 0.0, 0.0, 0.0, 1.7151624496454659E9, 0.0, 2024-05-08 13:00:49.645
86.0, -4102.349770349237, 0.0, 0.0, 0.0, 0.0, 0.0, 0.0, 0.0, 0.002, -0.044, 0.986, 192.0, 0.0, 0.0, 0.0, 0.0, 0.0, 0.0, 0.0, 0.0, 0.0, 1.7151624496454844E9, 0.0, 2024-05-08 13:00:49.645
87.0, -4298.8216041113865, 0.0, 0.0, 0.0, 0.0, 0.0, 0.0, 0.0, 0.002, -0.044, 0.986, 192.0, 0.0, 0.0, 0.0, 0.0, 0.0, 0.0, 0.0, 0.0, 0.0, 1.7151624496454983E9, 0.0, 2024-05-08 13:00:49.645
88.0, -4517.421664884289, 0.0, 0.0, 0.0, 0.0, 0.0, 0.0, 0.0, 0.002, -0.044, 0.986, 192.0, 0.0, 0.0, 0.0, 0.0, 0.0, 0.0, 0.0, 0.0, 0.0, 1.715162449645512E9, 0.0, 2024-05-08 13:00:49.645
89.0, -4421.711495126664, 0.0, 0.0, 0.0, 0.0, 0.0, 0.0, 0.0, 0.002, -0.044, 0.986, 192.0, 0.0, 0.0, 0.0, 0.0, 0.0, 0.0, 0.0, 0.0, 0.0, 1.7151624496455257E9, 0.0, 2024-05-08 13:00:49.645
90.0, -4063.9494733750194, 0.0, 0.0, 0.0, 0.0, 0.0, 0.0, 0.0, 0.002, -0.044, 0.986, 192.0, 0.0, 0.0, 0.0, 0.0, 0.0, 0.0, 0.0, 0.0, 0.0, 1.715162449645541E9, 0.0, 2024-05-08 13:00:49.645
91.0, -3841.2143398778844, 0.0, 0.0, 0.0, 0.0, 0.0, 0.0, 0.0, 0.002, -0.044, 0.986, 192.0, 0.0, 0.0, 0.0, 0.0, 0.0, 0.0, 0.0, 0.0, 0.0, 1.7151624496455545E9, 0.0, 2024-05-08 13:00:49.645
92.0, -4057.713336671989, 0.0, 0.0, 0.0, 0.0, 0.0, 0.0, 0.0, 0.002, -0.044, 0.986, 192.0, 0.0, 0.0, 0.0, 0.0, 0.0, 0.0, 0.0, 0.0, 0.0, 1.7151624496455684E9, 0.0, 2024-05-08 13:00:49.645
93.0, -4317.99940085404, 0.0, 0.0, 0.0, 0.0, 0.0, 0.0, 0.0, 0.002, -0.044, 0.986, 192.0, 0.0, 0.0, 0.0, 0.0, 0.0, 0.0, 0.0, 0.0, 0.0, 1.7151624496455822E9, 0.0, 2024-05-08 13:00:49.645
94.0, -4262.276501926959, 0.0, 0.0, 0.0, 0.0, 0.0, 0.0, 0.0, 0.002, -0.052000000000000005, 0.986, 192.0, 0.0, 16.0, 254.0, 96.0, 30.0, 208.0, 0.0, 0.0, 0.0, 1.7151624496455958E9, 0.0, 2024-05-08 13:00:49.645
95.0, -3914.103378546641, 0.0, 0.0, 0.0, 0.0, 0.0, 0.0, 0.0, 0.002, -0.052000000000000005, 0.986, 192.0, 0.0, 0.0, 0.0, 0.0, 0.0, 0.0, 0.0, 0.0, 0.0, 1.71516244964561E9, 0.0, 2024-05-08 13:00:49.645
96.0, -3673.598608207537, 0.0, 0.0, 0.0, 0.0, 0.0, 0.0, 0.0, 0.002, -0.052000000000000005, 0.986, 192.0, 0.0, 0.0, 0.0, 0.0, 0.0, 0.0, 0.0, 0.0, 0.0, 1.7151624496456385E9, 0.0, 2024-05-08 13:00:49.645
97.0, -3881.8945147865434, 0.0, 0.0, 0.0, 0.0, 0.0, 0.0, 0.0, 0.002, -0.052000000000000005, 0.986, 192.0, 0.0, 0.0, 0.0, 0.0, 0.0, 0.0, 0.0, 0.0, 0.0, 1.7151624496456537E9, 0.0, 2024-05-08 13:00:49.645
98.0, -4136.235014943482, 0.0, 0.0, 0.0, 0.0, 0.0, 0.0, 0.0, 0.002, -0.052000000000000005, 0.986, 192.0, 0.0, 0.0, 0.0, 0.0, 0.0, 0.0, 0.0, 0.0, 0.0, 1.7151624496456678E9, 0.0, 2024-05-08 13:00:49.645
99.0, -4067.1457728321284, 0.0, 0.0, 0.0, 0.0, 0.0, 0.0, 0.0, 0.002, -0.052000000000000005, 0.986, 192.0, 0.0, 0.0, 0.0, 0.0, 0.0, 0.0, 0.0, 0.0, 0.0, 1.715162449645682E9, 0.0, 2024-05-08 13:00:49.645
100.0, -3705.919230689911, 0.0, 0.0, 0.0, 0.0, 0.0, 0.0, 0.0, 0.002, -0.052000000000000005, 0.986, 192.0, 0.0, 0.0, 0.0, 0.0, 0.0, 0.0, 0.0, 0.0, 0.0, 1.7151624496457472E9, 0.0, 2024-05-08 13:00:49.645
101.0, -3471.605893564927, 0.0, 0.0, 0.0, 0.0, 0.0, 0.0, 0.0, 0.002, -0.052000000000000005, 0.986, 192.0, 0.0, 0.0, 0.0, 0.0, 0.0, 0.0, 0.0, 0.0, 0.0, 1.7151624496457655E9, 0.0, 2024-05-08 13:00:49.645
102.0, -3694.050454384143, 0.0, 0.0, 0.0, 0.0, 0.0, 0.0, 0.0, 0.002, -0.052000000000000005, 0.986, 192.0, 0.0, 0.0, 0.0, 0.0, 0.0, 0.0, 0.0, 0.0, 0.0, 1.7151624496457932E9, 0.0, 2024-05-08 13:00:49.645
103.0, -3962.3160913367383, 0.0, 0.0, 0.0, 0.0, 0.0, 0.0, 0.0, 0.002, -0.052000000000000005, 0.986, 192.0, 0.0, 0.0, 0.0, 0.0, 0.0, 0.0, 0.0, 0.0, 0.0, 1.7151624496458108E9, 0.0, 2024-05-08 13:00:49.645
104.0, -3908.291924988261, 0.0, 0.0, 0.0, 0.0, 0.0, 0.0, 0.0, -0.002, -0.052000000000000005, 0.99, 192.0, 255.0, 240.0, 254.0, 96.0, 30.0, 240.0, 0.0, 0.0, 0.0, 1.715162449645825E9, 0.0, 2024-05-08 13:00:49.645
105.0, -3575.407394815373, 0.0, 0.0, 0.0, 0.0, 0.0, 0.0, 0.0, -0.002, -0.052000000000000005, 0.99, 192.0, 0.0, 0.0, 0.0, 0.0, 0.0, 0.0, 0.0, 0.0, 0.0, 1.71516244964584E9, 0.0, 2024-05-08 13:00:49.645
106.0, -3382.2436192326095, 0.0, 0.0, 0.0, 0.0, 0.0, 0.0, 0.0, -0.002, -0.052000000000000005, 0.99, 192.0, 0.0, 0.0, 0.0, 0.0, 0.0, 0.0, 0.0, 0.0, 0.0, 1.7151624496458542E9, 0.0, 2024-05-08 13:00:49.645
107.0, -3618.926241269856, 0.0, 0.0, 0.0, 0.0, 0.0, 0.0, 0.0, -0.002, -0.052000000000000005, 0.99, 192.0, 0.0, 0.0, 0.0, 0.0, 0.0, 0.0, 0.0, 0.0, 0.0, 1.715162449645872E9, 0.0, 2024-05-08 13:00:49.645
108.0, -3901.720512118401, 0.0, 0.0, 0.0, 0.0, 0.0, 0.0, 0.0, -0.002, -0.052000000000000005, 0.99, 192.0, 0.0, 0.0, 0.0, 0.0, 0.0, 0.0, 0.0, 0.0, 0.0, 1.7151624496458867E9, 0.0, 2024-05-08 13:00:49.645
109.0, -3879.7710990632895, 0.0, 0.0, 0.0, 0.0, 0.0, 0.0, 0.0, -0.002, -0.052000000000000005, 0.99, 192.0, 0.0, 0.0, 0.0, 0.0, 0.0, 0.0, 0.0, 0.0, 0.0, 1.7151624496459024E9, 0.0, 2024-05-08 13:00:49.645
110.0, -3641.568558403082, 0.0, 0.0, 0.0, 0.0, 0.0, 0.0, 0.0, -0.002, -0.052000000000000005, 0.99, 192.0, 0.0, 0.0, 0.0, 0.0, 0.0, 0.0, 0.0, 0.0, 0.0, 1.7151624496459184E9, 0.0, 2024-05-08 13:00:49.645
111.0, -3557.995385884689, 0.0, 0.0, 0.0, 0.0, 0.0, 0.0, 0.0, -0.002, -0.052000000000000005, 0.99, 192.0, 0.0, 0.0, 0.0, 0.0, 0.0, 0.0, 0.0, 0.0, 0.0, 1.7151624496459317E9, 0.0, 2024-05-08 13:00:49.645
112.0, -3892.2433724693506, 0.0, 0.0, 0.0, 0.0, 0.0, 0.0, 0.0, -0.002, -0.052000000000000005, 0.99, 192.0, 0.0, 0.0, 0.0, 0.0, 0.0, 0.0, 0.0, 0.0, 0.0, 1.7151624496459453E9, 0.0, 2024-05-08 13:00:49.645
113.0, -4234.023896935451, 0.0, 0.0, 0.0, 0.0, 0.0, 0.0, 0.0, -0.002, -0.052000000000000005, 0.99, 192.0, 0.0, 0.0, 0.0, 0.0, 0.0, 0.0, 0.0, 0.0, 0.0, 1.715162449645975E9, 0.0, 2024-05-08 13:00:49.645
114.0, -4241.757600516988, 0.0, 0.0, 0.0, 0.0, 0.0, 0.0, 0.0, 0.004, -0.05, 1.0, 192.0, 0.0, 32.0, 254.0, 112.0, 31.0, 64.0, 0.0, 0.0, 0.0, 1.715162449645989E9, 0.0, 2024-05-08 13:00:49.645
115.0, -3944.0547161167524, 0.0, 0.0, 0.0, 0.0, 0.0, 0.0, 0.0, 0.004, -0.05, 1.0, 192.0, 0.0, 0.0, 0.0, 0.0, 0.0, 0.0, 0.0, 0.0, 0.0, 1.7151624496460042E9, 0.0, 2024-05-08 13:00:49.646
116.0, -3743.201940441363, 0.0, 0.0, 0.0, 0.0, 0.0, 0.0, 0.0, 0.004, -0.05, 1.0, 192.0, 0.0, 0.0, 0.0, 0.0, 0.0, 0.0, 0.0, 0.0, 0.0, 1.7151624496460187E9, 0.0, 2024-05-08 13:00:49.646
117.0, -3976.352986854671, 0.0, 0.0, 0.0, 0.0, 0.0, 0.0, 0.0, 0.004, -0.05, 1.0, 192.0, 0.0, 0.0, 0.0, 0.0, 0.0, 0.0, 0.0, 0.0, 0.0, 1.7151624496460323E9, 0.0, 2024-05-08 13:00:49.646
118.0, -4291.289066229948, 0.0, 0.0, 0.0, 0.0, 0.0, 0.0, 0.0, 0.004, -0.05, 1.0, 192.0, 0.0, 0.0, 0.0, 0.0, 0.0, 0.0, 0.0, 0.0, 0.0, 1.7151624496460457E9, 0.0, 2024-05-08 13:00:49.646
119.0, -4296.787595365953, 0.0, 0.0, 0.0, 0.0, 0.0, 0.0, 0.0, 0.004, -0.05, 1.0, 192.0, 0.0, 0.0, 0.0, 0.0, 0.0, 0.0, 0.0, 0.0, 0.0, 1.7151624496460595E9, 0.0, 2024-05-08 13:00:49.646
120.0, -4004.873812779643, 0.0, 0.0, 0.0, 0.0, 0.0, 0.0, 0.0, 0.004, -0.05, 1.0, 192.0, 0.0, 0.0, 0.0, 0.0, 0.0, 0.0, 0.0, 0.0, 0.0, 1.7151624496460729E9, 0.0, 2024-05-08 13:00:49.646
121.0, -3820.5613280011808, 0.0, 0.0, 0.0, 0.0, 0.0, 0.0, 0.0, 0.004, -0.05, 1.0, 192.0, 0.0, 0.0, 0.0, 0.0, 0.0, 0.0, 0.0, 0.0, 0.0, 1.7151624496460865E9, 0.0, 2024-05-08 13:00:49.646
122.0, -4079.193363093539, 0.0, 0.0, 0.0, 0.0, 0.0, 0.0, 0.0, 0.004, -0.05, 1.0, 192.0, 0.0, 0.0, 0.0, 0.0, 0.0, 0.0, 0.0, 0.0, 0.0, 1.7151624496461E9, 0.0, 2024-05-08 13:00:49.646
0.0, 0.0, 0.0, 0.0, 0.0, 0.0, 0.0, 0.0, 0.0, 0.004, -0.05, 1.0, 192.0, 0.0, 0.0, 0.0, 0.0, 0.0, 0.0, 0.0, 0.0, 0.0, 1.7151624497409968E9, 0.0, 2024-05-08 13:00:49.740
1.0, -8377.009138704436, 0.0, 0.0, 0.0, 0.0, 0.0, 0.0, 0.0, 0.004, -0.05, 1.0, 192.0, 0.0, 0.0, 254.0, 144.0, 31.0, 16.0, 0.0, 0.0, 0.0, 1.7151624502271297E9, 0.0, 2024-05-08 13:00:50.227
2.0, -8171.440144948977, 0.0, 0.0, 0.0, 0.0, 0.0, 0.0, 0.0, 0.004, -0.05, 1.0, 192.0, 0.0, 0.0, 0.0, 0.0, 0.0, 0.0, 0.0, 0.0, 0.0, 1.7151624502271848E9, 0.0, 2024-05-08 13:00:50.227
3.0, -7758.446962648269, 0.0, 0.0, 0.0, 0.0, 0.0, 0.0, 0.0, 0.004, -0.05, 1.0, 192.0, 0.0, 0.0, 0.0, 0.0, 0.0, 0.0, 0.0, 0.0, 0.0, 1.715162450227217E9, 0.0, 2024-05-08 13:00:50.227
4.0, -7607.170356174751, 0.0, 0.0, 0.0, 0.0, 0.0, 0.0, 0.0, 0.004, -0.05, 1.0, 192.0, 0.0, 0.0, 0.0, 0.0, 0.0, 0.0, 0.0, 0.0, 0.0, 1.7151624502272484E9, 0.0, 2024-05-08 13:00:50.227
5.0, -7891.75276657972, 0.0, 0.0, 0.0, 0.0, 0.0, 0.0, 0.0, 0.004, -0.05, 1.0, 192.0, 0.0, 0.0, 0.0, 0.0, 0.0, 0.0, 0.0, 0.0, 0.0, 1.7151624502272787E9, 0.0, 2024-05-08 13:00:50.227
6.0, -8090.482126531855, 0.0, 0.0, 0.0, 0.0, 0.0, 0.0, 0.0, 0.004, -0.05, 1.0, 192.0, 0.0, 0.0, 0.0, 0.0, 0.0, 0.0, 0.0, 0.0, 0.0, 1.7151624502273111E9, 0.0, 2024-05-08 13:00:50.227
7.0, -7849.776190492653, 0.0, 0.0, 0.0, 0.0, 0.0, 0.0, 0.0, 0.004, -0.05, 1.0, 192.0, 0.0, 0.0, 0.0, 0.0, 0.0, 0.0, 0.0, 0.0, 0.0, 1.7151624502273307E9, 0.0, 2024-05-08 13:00:50.227
8.0, -7442.572110005869, 0.0, 0.0, 0.0, 0.0, 0.0, 0.0, 0.0, 0.002, -0.046, 0.994, 192.0, 0.0, 16.0, 254.0, 144.0, 31.0, 16.0, 0.0, 0.0, 0.0, 1.7151624502274826E9, 0.0, 2024-05-08 13:00:50.227
9.0, -7251.665860613091, 0.0, 0.0, 0.0, 0.0, 0.0, 0.0, 0.0, 0.002, -0.046, 0.994, 192.0, 0.0, 0.0, 0.0, 0.0, 0.0, 0.0, 0.0, 0.0, 0.0, 1.7151624502275038E9, 0.0, 2024-05-08 13:00:50.227
10.0, -7479.564247079403, 0.0, 0.0, 0.0, 0.0, 0.0, 0.0, 0.0, 0.002, -0.046, 0.994, 192.0, 0.0, 0.0, 0.0, 0.0, 0.0, 0.0, 0.0, 0.0, 0.0, 1.7151624502275736E9, 0.0, 2024-05-08 13:00:50.227
11.0, -7674.762031407599, 0.0, 0.0, 0.0, 0.0, 0.0, 0.0, 0.0, 0.002, -0.046, 0.994, 192.0, 0.0, 0.0, 0.0, 0.0, 0.0, 0.0, 0.0, 0.0, 0.0, 1.7151624502275977E9, 0.0, 2024-05-08 13:00:50.227
12.0, -7426.456502253593, 0.0, 0.0, 0.0, 0.0, 0.0, 0.0, 0.0, 0.002, -0.046, 0.994, 192.0, 0.0, 0.0, 0.0, 0.0, 0.0, 0.0, 0.0, 0.0, 0.0, 1.7151624502276175E9, 0.0, 2024-05-08 13:00:50.227
13.0, -6971.822020032647, 0.0, 0.0, 0.0, 0.0, 0.0, 0.0, 0.0, 0.002, -0.046, 0.994, 192.0, 0.0, 0.0, 0.0, 0.0, 0.0, 0.0, 0.0, 0.0, 0.0, 1.7151624502276375E9, 0.0, 2024-05-08 13:00:50.227
14.0, -6774.277302536643, 0.0, 0.0, 0.0, 0.0, 0.0, 0.0, 0.0, 0.002, -0.046, 0.994, 192.0, 0.0, 0.0, 0.0, 0.0, 0.0, 0.0, 0.0, 0.0, 0.0, 1.7151624502276564E9, 0.0, 2024-05-08 13:00:50.227
15.0, -7004.254401237297, 0.0, 0.0, 0.0, 0.0, 0.0, 0.0, 0.0, 0.002, -0.046, 0.994, 192.0, 0.0, 0.0, 0.0, 0.0, 0.0, 0.0, 0.0, 0.0, 0.0, 1.7151624502276747E9, 0.0, 2024-05-08 13:00:50.227
16.0, -7171.80307767428, 0.0, 0.0, 0.0, 0.0, 0.0, 0.0, 0.0, 0.002, -0.046, 0.994, 192.0, 0.0, 0.0, 0.0, 0.0, 0.0, 0.0, 0.0, 0.0, 0.0, 1.7151624502276902E9, 0.0, 2024-05-08 13:00:50.227
17.0, -6930.761865468248, 0.0, 0.0, 0.0, 0.0, 0.0, 0.0, 0.0, 0.002, -0.046, 0.994, 192.0, 0.0, 0.0, 0.0, 0.0, 0.0, 0.0, 0.0, 0.0, 0.0, 1.7151624502277043E9, 0.0, 2024-05-08 13:00:50.227
18.0, -6497.138023035291, 0.0, 0.0, 0.0, 0.0, 0.0, 0.0, 0.0, 0.002, -0.048, 1.0, 192.0, 0.0, 16.0, 254.0, 128.0, 31.0, 64.0, 0.0, 0.0, 0.0, 1.7151624502277184E9, 0.0, 2024-05-08 13:00:50.227
19.0, -6274.715813960531, 0.0, 0.0, 0.0, 0.0, 0.0, 0.0, 0.0, 0.002, -0.048, 1.0, 192.0, 0.0, 0.0, 0.0, 0.0, 0.0, 0.0, 0.0, 0.0, 0.0, 1.7151624502277331E9, 0.0, 2024-05-08 13:00:50.227
20.0, -6464.66093834173, 0.0, 0.0, 0.0, 0.0, 0.0, 0.0, 0.0, 0.002, -0.048, 1.0, 192.0, 0.0, 0.0, 0.0, 0.0, 0.0, 0.0, 0.0, 0.0, 0.0, 1.7151624502277496E9, 0.0, 2024-05-08 13:00:50.227
21.0, -6644.815998651505, 0.0, 0.0, 0.0, 0.0, 0.0, 0.0, 0.0, 0.002, -0.048, 1.0, 192.0, 0.0, 0.0, 0.0, 0.0, 0.0, 0.0, 0.0, 0.0, 0.0, 1.7151624502277637E9, 0.0, 2024-05-08 13:00:50.227
22.0, -6415.822376706884, 0.0, 0.0, 0.0, 0.0, 0.0, 0.0, 0.0, 0.002, -0.048, 1.0, 192.0, 0.0, 0.0, 0.0, 0.0, 0.0, 0.0, 0.0, 0.0, 0.0, 1.7151624502277775E9, 0.0, 2024-05-08 13:00:50.227
23.0, -5971.51440042429, 0.0, 0.0, 0.0, 0.0, 0.0, 0.0, 0.0, 0.002, -0.048, 1.0, 192.0, 0.0, 0.0, 0.0, 0.0, 0.0, 0.0, 0.0, 0.0, 0.0, 1.7151624502277915E9, 0.0, 2024-05-08 13:00:50.227
24.0, -5780.205819631317, 0.0, 0.0, 0.0, 0.0, 0.0, 0.0, 0.0, 0.002, -0.048, 1.0, 192.0, 0.0, 0.0, 0.0, 0.0, 0.0, 0.0, 0.0, 0.0, 0.0, 1.7151624502278054E9, 0.0, 2024-05-08 13:00:50.227
25.0, -6015.368523045603, 0.0, 0.0, 0.0, 0.0, 0.0, 0.0, 0.0, 0.002, -0.048, 1.0, 192.0, 0.0, 0.0, 0.0, 0.0, 0.0, 0.0, 0.0, 0.0, 0.0, 1.7151624502278192E9, 0.0, 2024-05-08 13:00:50.227
26.0, -6205.268943937891, 0.0, 0.0, 0.0, 0.0, 0.0, 0.0, 0.0, 0.002, -0.048, 1.0, 192.0, 0.0, 0.0, 0.0, 0.0, 0.0, 0.0, 0.0, 0.0, 0.0, 1.715162450227865E9, 0.0, 2024-05-08 13:00:50.227
27.0, -5975.828287104165, 0.0, 0.0, 0.0, 0.0, 0.0, 0.0, 0.0, 0.002, -0.048, 1.0, 192.0, 0.0, 0.0, 0.0, 0.0, 0.0, 0.0, 0.0, 0.0, 0.0, 1.7151624502278802E9, 0.0, 2024-05-08 13:00:50.227
28.0, -5532.481435833149, 0.0, 0.0, 0.0, 0.0, 0.0, 0.0, 0.0, 0.002, -0.048, 1.0, 192.0, 0.0, 0.0, 254.0, 112.0, 31.0, 32.0, 0.0, 0.0, 0.0, 1.7151624502278943E9, 0.0, 2024-05-08 13:00:50.227
29.0, -5333.930889836656, 0.0, 0.0, 0.0, 0.0, 0.0, 0.0, 0.0, 0.002, -0.048, 1.0, 192.0, 0.0, 0.0, 0.0, 0.0, 0.0, 0.0, 0.0, 0.0, 0.0, 1.7151624502279098E9, 0.0, 2024-05-08 13:00:50.227
30.0, -5577.1625729993075, 0.0, 0.0, 0.0, 0.0, 0.0, 0.0, 0.0, 0.002, -0.048, 1.0, 192.0, 0.0, 0.0, 0.0, 0.0, 0.0, 0.0, 0.0, 0.0, 0.0, 1.7151624502279236E9, 0.0, 2024-05-08 13:00:50.227
31.0, -5784.318540611093, 0.0, 0.0, 0.0, 0.0, 0.0, 0.0, 0.0, 0.002, -0.048, 1.0, 192.0, 0.0, 0.0, 0.0, 0.0, 0.0, 0.0, 0.0, 0.0, 0.0, 1.7151624502279377E9, 0.0, 2024-05-08 13:00:50.227
32.0, -5578.704843366724, 0.0, 0.0, 0.0, 0.0, 0.0, 0.0, 0.0, 0.002, -0.048, 1.0, 192.0, 0.0, 0.0, 0.0, 0.0, 0.0, 0.0, 0.0, 0.0, 0.0, 1.7151624502279515E9, 0.0, 2024-05-08 13:00:50.227
33.0, -5183.50364965244, 0.0, 0.0, 0.0, 0.0, 0.0, 0.0, 0.0, 0.002, -0.048, 1.0, 192.0, 0.0, 0.0, 0.0, 0.0, 0.0, 0.0, 0.0, 0.0, 0.0, 1.7151624502279673E9, 0.0, 2024-05-08 13:00:50.227
34.0, -4986.2271530899, 0.0, 0.0, 0.0, 0.0, 0.0, 0.0, 0.0, 0.002, -0.048, 1.0, 192.0, 0.0, 0.0, 0.0, 0.0, 0.0, 0.0, 0.0, 0.0, 0.0, 1.715162450227981E9, 0.0, 2024-05-08 13:00:50.227
35.0, -5236.812560178347, 0.0, 0.0, 0.0, 0.0, 0.0, 0.0, 0.0, 0.002, -0.048, 1.0, 192.0, 0.0, 0.0, 0.0, 0.0, 0.0, 0.0, 0.0, 0.0, 0.0, 1.715162450227996E9, 0.0, 2024-05-08 13:00:50.227
36.0, -5446.248405724574, 0.0, 0.0, 0.0, 0.0, 0.0, 0.0, 0.0, 0.002, -0.048, 1.0, 192.0, 0.0, 0.0, 0.0, 0.0, 0.0, 0.0, 0.0, 0.0, 0.0, 1.7151624502280116E9, 0.0, 2024-05-08 13:00:50.228
37.0, -5264.9981099364895, 0.0, 0.0, 0.0, 0.0, 0.0, 0.0, 0.0, 0.002, -0.048, 1.0, 192.0, 0.0, 0.0, 0.0, 0.0, 0.0, 0.0, 0.0, 0.0, 0.0, 1.715162450228027E9, 0.0, 2024-05-08 13:00:50.228
38.0, -4860.811514951171, 0.0, 0.0, 0.0, 0.0, 0.0, 0.0, 0.0, -0.002, -0.052000000000000005, 0.99, 192.0, 255.0, 240.0, 254.0, 96.0, 30.0, 240.0, 0.0, 0.0, 0.0, 1.7151624502280407E9, 0.0, 2024-05-08 13:00:50.228
39.0, -4657.701213085797, 0.0, 0.0, 0.0, 0.0, 0.0, 0.0, 0.0, -0.002, -0.052000000000000005, 0.99, 192.0, 0.0, 0.0, 0.0, 0.0, 0.0, 0.0, 0.0, 0.0, 0.0, 1.715162450228058E9, 0.0, 2024-05-08 13:00:50.228
40.0, -4896.060215957191, 0.0, 0.0, 0.0, 0.0, 0.0, 0.0, 0.0, -0.002, -0.052000000000000005, 0.99, 192.0, 0.0, 0.0, 0.0, 0.0, 0.0, 0.0, 0.0, 0.0, 0.0, 1.7151624502280717E9, 0.0, 2024-05-08 13:00:50.228
41.0, -5130.082980404256, 0.0, 0.0, 0.0, 0.0, 0.0, 0.0, 0.0, -0.002, -0.052000000000000005, 0.99, 192.0, 0.0, 0.0, 0.0, 0.0, 0.0, 0.0, 0.0, 0.0, 0.0, 1.715162450228086E9, 0.0, 2024-05-08 13:00:50.228
42.0, -4897.378968880054, 0.0, 0.0, 0.0, 0.0, 0.0, 0.0, 0.0, -0.002, -0.052000000000000005, 0.99, 192.0, 0.0, 0.0, 0.0, 0.0, 0.0, 0.0, 0.0, 0.0, 0.0, 1.7151624502280998E9, 0.0, 2024-05-08 13:00:50.228
43.0, -4477.769670220575, 0.0, 0.0, 0.0, 0.0, 0.0, 0.0, 0.0, -0.002, -0.052000000000000005, 0.99, 192.0, 0.0, 0.0, 0.0, 0.0, 0.0, 0.0, 0.0, 0.0, 0.0, 1.7151624502281237E9, 0.0, 2024-05-08 13:00:50.228
44.0, -4306.644714670743, 0.0, 0.0, 0.0, 0.0, 0.0, 0.0, 0.0, -0.002, -0.052000000000000005, 0.99, 192.0, 0.0, 0.0, 0.0, 0.0, 0.0, 0.0, 0.0, 0.0, 0.0, 1.715162450228138E9, 0.0, 2024-05-08 13:00:50.228
45.0, -4549.608176899931, 0.0, 0.0, 0.0, 0.0, 0.0, 0.0, 0.0, -0.002, -0.052000000000000005, 0.99, 192.0, 0.0, 0.0, 0.0, 0.0, 0.0, 0.0, 0.0, 0.0, 0.0, 1.7151624502281525E9, 0.0, 2024-05-08 13:00:50.228
46.0, -4725.024667385182, 0.0, 0.0, 0.0, 0.0, 0.0, 0.0, 0.0, -0.002, -0.052000000000000005, 0.99, 192.0, 0.0, 0.0, 0.0, 0.0, 0.0, 0.0, 0.0, 0.0, 0.0, 1.7151624502281685E9, 0.0, 2024-05-08 13:00:50.228
47.0, -4506.826938012474, 0.0, 0.0, 0.0, 0.0, 0.0, 0.0, 0.0, -0.002, -0.052000000000000005, 0.99, 192.0, 0.0, 0.0, 0.0, 0.0, 0.0, 0.0, 0.0, 0.0, 0.0, 1.7151624502281823E9, 0.0, 2024-05-08 13:00:50.228
48.0, -4083.1496218621282, 0.0, 0.0, 0.0, 0.0, 0.0, 0.0, 0.0, -0.002, -0.048, 0.99, 192.0, 255.0, 240.0, 254.0, 128.0, 30.0, 240.0, 0.0, 0.0, 0.0, 1.7151624502281964E9, 0.0, 2024-05-08 13:00:50.228
49.0, -3887.258933455817, 0.0, 0.0, 0.0, 0.0, 0.0, 0.0, 0.0, -0.002, -0.048, 0.99, 192.0, 0.0, 0.0, 0.0, 0.0, 0.0, 0.0, 0.0, 0.0, 0.0, 1.7151624502282112E9, 0.0, 2024-05-08 13:00:50.228
50.0, -4103.489709316457, 0.0, 0.0, 0.0, 0.0, 0.0, 0.0, 0.0, -0.002, -0.048, 0.99, 192.0, 0.0, 0.0, 0.0, 0.0, 0.0, 0.0, 0.0, 0.0, 0.0, 1.7151624502282252E9, 0.0, 2024-05-08 13:00:50.228
51.0, -4270.077260741861, 0.0, 0.0, 0.0, 0.0, 0.0, 0.0, 0.0, -0.002, -0.048, 0.99, 192.0, 0.0, 0.0, 0.0, 0.0, 0.0, 0.0, 0.0, 0.0, 0.0, 1.7151624502282393E9, 0.0, 2024-05-08 13:00:50.228
52.0, -4071.482011256458, 0.0, 0.0, 0.0, 0.0, 0.0, 0.0, 0.0, -0.002, -0.048, 0.99, 192.0, 0.0, 0.0, 0.0, 0.0, 0.0, 0.0, 0.0, 0.0, 0.0, 1.7151624502282548E9, 0.0, 2024-05-08 13:00:50.228
53.0, -3652.856189353012, 0.0, 0.0, 0.0, 0.0, 0.0, 0.0, 0.0, -0.002, -0.048, 0.99, 192.0, 0.0, 0.0, 0.0, 0.0, 0.0, 0.0, 0.0, 0.0, 0.0, 1.7151624502282686E9, 0.0, 2024-05-08 13:00:50.228
54.0, -3475.7409662891587, 0.0, 0.0, 0.0, 0.0, 0.0, 0.0, 0.0, -0.002, -0.048, 0.99, 192.0, 0.0, 0.0, 0.0, 0.0, 0.0, 0.0, 0.0, 0.0, 0.0, 1.7151624502282825E9, 0.0, 2024-05-08 13:00:50.228
55.0, -3677.10783208702, 0.0, 0.0, 0.0, 0.0, 0.0, 0.0, 0.0, -0.002, -0.048, 0.99, 192.0, 0.0, 0.0, 0.0, 0.0, 0.0, 0.0, 0.0, 0.0, 0.0, 1.7151624502282963E9, 0.0, 2024-05-08 13:00:50.228
56.0, -3865.8906657565435, 0.0, 0.0, 0.0, 0.0, 0.0, 0.0, 0.0, -0.002, -0.048, 0.99, 192.0, 0.0, 0.0, 0.0, 0.0, 0.0, 0.0, 0.0, 0.0, 0.0, 1.71516245022831E9, 0.0, 2024-05-08 13:00:50.228
57.0, -3690.5188787602046, 0.0, 0.0, 0.0, 0.0, 0.0, 0.0, 0.0, -0.002, -0.048, 0.99, 192.0, 0.0, 0.0, 0.0, 0.0, 0.0, 0.0, 0.0, 0.0, 0.0, 1.7151624502283244E9, 0.0, 2024-05-08 13:00:50.228
58.0, -3274.5305627024845, 0.0, 0.0, 0.0, 0.0, 0.0, 0.0, 0.0, 0.002, -0.052000000000000005, 0.99, 192.0, 0.0, 16.0, 254.0, 96.0, 30.0, 240.0, 0.0, 0.0, 0.0, 1.7151624502283382E9, 0.0, 2024-05-08 13:00:50.228
59.0, -3107.563031621341, 0.0, 0.0, 0.0, 0.0, 0.0, 0.0, 0.0, 0.002, -0.052000000000000005, 0.99, 192.0, 0.0, 0.0, 0.0, 0.0, 0.0, 0.0, 0.0, 0.0, 0.0, 1.7151624502283547E9, 0.0, 2024-05-08 13:00:50.228
60.0, -3350.817066528448, 0.0, 0.0, 0.0, 0.0, 0.0, 0.0, 0.0, 0.002, -0.052000000000000005, 0.99, 192.0, 0.0, 0.0, 0.0, 0.0, 0.0, 0.0, 0.0, 0.0, 0.0, 1.7151624502283764E9, 0.0, 2024-05-08 13:00:50.228
61.0, -3579.5648192840604, 0.0, 0.0, 0.0, 0.0, 0.0, 0.0, 0.0, 0.002, -0.052000000000000005, 0.99, 192.0, 0.0, 0.0, 0.0, 0.0, 0.0, 0.0, 0.0, 0.0, 0.0, 1.7151624502283907E9, 0.0, 2024-05-08 13:00:50.228
62.0, -3402.2037270311985, 0.0, 0.0, 0.0, 0.0, 0.0, 0.0, 0.0, 0.002, -0.052000000000000005, 0.99, 192.0, 0.0, 0.0, 0.0, 0.0, 0.0, 0.0, 0.0, 0.0, 0.0, 1.7151624502284143E9, 0.0, 2024-05-08 13:00:50.228
63.0, -2997.8383180902388, 0.0, 0.0, 0.0, 0.0, 0.0, 0.0, 0.0, 0.002, -0.052000000000000005, 0.99, 192.0, 0.0, 0.0, 0.0, 0.0, 0.0, 0.0, 0.0, 0.0, 0.0, 1.7151624502284317E9, 0.0, 2024-05-08 13:00:50.228
64.0, -2831.4295806204773, 0.0, 0.0, 0.0, 0.0, 0.0, 0.0, 0.0, 0.002, -0.052000000000000005, 0.99, 192.0, 0.0, 0.0, 0.0, 0.0, 0.0, 0.0, 0.0, 0.0, 0.0, 1.7151624502284532E9, 0.0, 2024-05-08 13:00:50.228
65.0, -3058.724469986495, 0.0, 0.0, 0.0, 0.0, 0.0, 0.0, 0.0, 0.002, -0.052000000000000005, 0.99, 192.0, 0.0, 0.0, 0.0, 0.0, 0.0, 0.0, 0.0, 0.0, 0.0, 1.7151624502284727E9, 0.0, 2024-05-08 13:00:50.228
66.0, -3268.4061847217304, 0.0, 0.0, 0.0, 0.0, 0.0, 0.0, 0.0, 0.002, -0.052000000000000005, 0.99, 192.0, 0.0, 0.0, 0.0, 0.0, 0.0, 0.0, 0.0, 0.0, 0.0, 1.7151624502284868E9, 0.0, 2024-05-08 13:00:50.228
67.0, -3090.8662785132265, 0.0, 0.0, 0.0, 0.0, 0.0, 0.0, 0.0, 0.002, -0.052000000000000005, 0.99, 192.0, 0.0, 0.0, 0.0, 0.0, 0.0, 0.0, 0.0, 0.0, 0.0, 1.7151624502285006E9, 0.0, 2024-05-08 13:00:50.228
68.0, -2696.58150632161, 0.0, 0.0, 0.0, 0.0, 0.0, 0.0, 0.0, 0.002, -0.048, 0.99, 192.0, 0.0, 16.0, 254.0, 128.0, 30.0, 240.0, 0.0, 0.0, 0.0, 1.7151624502285144E9, 0.0, 2024-05-08 13:00:50.228
69.0, -2531.4691700302565, 0.0, 0.0, 0.0, 0.0, 0.0, 0.0, 0.0, 0.002, -0.048, 0.99, 192.0, 0.0, 0.0, 0.0, 0.0, 0.0, 0.0, 0.0, 0.0, 0.0, 1.7151624502285292E9, 0.0, 2024-05-08 13:00:50.228
70.0, -2750.4268587144447, 0.0, 0.0, 0.0, 0.0, 0.0, 0.0, 0.0, 0.002, -0.048, 0.99, 192.0, 0.0, 0.0, 0.0, 0.0, 0.0, 0.0, 0.0, 0.0, 0.0, 1.715162450228543E9, 0.0, 2024-05-08 13:00:50.228
71.0, -2976.5147538798756, 0.0, 0.0, 0.0, 0.0, 0.0, 0.0, 0.0, 0.002, -0.048, 0.99, 192.0, 0.0, 0.0, 0.0, 0.0, 0.0, 0.0, 0.0, 0.0, 0.0, 1.7151624502285569E9, 0.0, 2024-05-08 13:00:50.228
72.0, -2764.5308094657435, 0.0, 0.0, 0.0, 0.0, 0.0, 0.0, 0.0, 0.002, -0.048, 0.99, 192.0, 0.0, 0.0, 0.0, 0.0, 0.0, 0.0, 0.0, 0.0, 0.0, 1.7151624502285728E9, 0.0, 2024-05-08 13:00:50.228
73.0, -2341.658156115789, 0.0, 0.0, 0.0, 0.0, 0.0, 0.0, 0.0, 0.002, -0.048, 0.99, 192.0, 0.0, 0.0, 0.0, 0.0, 0.0, 0.0, 0.0, 0.0, 0.0, 1.7151624502285864E9, 0.0, 2024-05-08 13:00:50.228
74.0, -2161.413688828193, 0.0, 0.0, 0.0, 0.0, 0.0, 0.0, 0.0, 0.002, -0.048, 0.99, 192.0, 0.0, 0.0, 0.0, 0.0, 0.0, 0.0, 0.0, 0.0, 0.0, 1.7151624502286005E9, 0.0, 2024-05-08 13:00:50.228
75.0, -2372.928246608764, 0.0, 0.0, 0.0, 0.0, 0.0, 0.0, 0.0, 0.002, -0.048, 0.99, 192.0, 0.0, 0.0, 0.0, 0.0, 0.0, 0.0, 0.0, 0.0, 0.0, 1.715162450228614E9, 0.0, 2024-05-08 13:00:50.228
76.0, -2563.387461112435, 0.0, 0.0, 0.0, 0.0, 0.0, 0.0, 0.0, 0.002, -0.048, 0.99, 192.0, 0.0, 0.0, 0.0, 0.0, 0.0, 0.0, 0.0, 0.0, 0.0, 1.715162450228628E9, 0.0, 2024-05-08 13:00:50.228
77.0, -2366.0662610609843, 0.0, 0.0, 0.0, 0.0, 0.0, 0.0, 0.0, 0.002, -0.048, 0.99, 192.0, 0.0, 0.0, 0.0, 0.0, 0.0, 0.0, 0.0, 0.0, 0.0, 1.7151624502286415E9, 0.0, 2024-05-08 13:00:50.228
78.0, -1993.6861984355687, 0.0, 0.0, 0.0, 0.0, 0.0, 0.0, 0.0, 0.004, -0.05, 0.992, 192.0, 0.0, 32.0, 254.0, 112.0, 31.0, 0.0, 0.0, 0.0, 0.0, 1.715162450228675E9, 0.0, 2024-05-08 13:00:50.228
79.0, -1771.621617272093, 0.0, 0.0, 0.0, 0.0, 0.0, 0.0, 0.0, 0.004, -0.05, 0.992, 192.0, 0.0, 0.0, 0.0, 0.0, 0.0, 0.0, 0.0, 0.0, 0.0, 1.7151624502286952E9, 0.0, 2024-05-08 13:00:50.228
80.0, -1979.7610616399124, 0.0, 0.0, 0.0, 0.0, 0.0, 0.0, 0.0, 0.004, -0.05, 0.992, 192.0, 0.0, 0.0, 0.0, 0.0, 0.0, 0.0, 0.0, 0.0, 0.0, 1.7151624502287135E9, 0.0, 2024-05-08 13:00:50.228
81.0, -2157.1668573816846, 0.0, 0.0, 0.0, 0.0, 0.0, 0.0, 0.0, 0.004, -0.05, 0.992, 192.0, 0.0, 0.0, 0.0, 0.0, 0.0, 0.0, 0.0, 0.0, 0.0, 1.715162450228731E9, 0.0, 2024-05-08 13:00:50.228
82.0, -1977.9505703390325, 0.0, 0.0, 0.0, 0.0, 0.0, 0.0, 0.0, 0.004, -0.05, 0.992, 192.0, 0.0, 0.0, 0.0, 0.0, 0.0, 0.0, 0.0, 0.0, 0.0, 1.7151624502287488E9, 0.0, 2024-05-08 13:00:50.228
83.0, -1603.111815823533, 0.0, 0.0, 0.0, 0.0, 0.0, 0.0, 0.0, 0.004, -0.05, 0.992, 192.0, 0.0, 0.0, 0.0, 0.0, 0.0, 0.0, 0.0, 0.0, 0.0, 1.7151624502287629E9, 0.0, 2024-05-08 13:00:50.228
84.0, -1441.1957789892888, 0.0, 0.0, 0.0, 0.0, 0.0, 0.0, 0.0, 0.004, -0.05, 0.992, 192.0, 0.0, 0.0, 0.0, 0.0, 0.0, 0.0, 0.0, 0.0, 0.0, 1.7151624502287776E9, 0.0, 2024-05-08 13:00:50.228
85.0, -1675.1738399474432, 0.0, 0.0, 0.0, 0.0, 0.0, 0.0, 0.0, 0.004, -0.05, 0.992, 192.0, 0.0, 0.0, 0.0, 0.0, 0.0, 0.0, 0.0, 0.0, 0.0, 1.7151624502287931E9, 0.0, 2024-05-08 13:00:50.228
86.0, -1924.3734388796615, 0.0, 0.0, 0.0, 0.0, 0.0, 0.0, 0.0, 0.004, -0.05, 0.992, 192.0, 0.0, 0.0, 0.0, 0.0, 0.0, 0.0, 0.0, 0.0, 0.0, 1.7151624502288077E9, 0.0, 2024-05-08 13:00:50.228
87.0, -1781.0093499433221, 0.0, 0.0, 0.0, 0.0, 0.0, 0.0, 0.0, 0.004, -0.05, 0.992, 192.0, 0.0, 0.0, 0.0, 0.0, 0.0, 0.0, 0.0, 0.0, 0.0, 1.7151624502288215E9, 0.0, 2024-05-08 13:00:50.228
88.0, -1444.347374957487, 0.0, 0.0, 0.0, 0.0, 0.0, 0.0, 0.0, 0.004, -0.048, 0.988, 192.0, 0.0, 32.0, 254.0, 128.0, 30.0, 224.0, 0.0, 0.0, 0.0, 1.7151624502288356E9, 0.0, 2024-05-08 13:00:50.228
89.0, -1332.0745625584798, 0.0, 0.0, 0.0, 0.0, 0.0, 0.0, 0.0, 0.004, -0.048, 0.988, 192.0, 0.0, 0.0, 0.0, 0.0, 0.0, 0.0, 0.0, 0.0, 0.0, 1.7151624502288501E9, 0.0, 2024-05-08 13:00:50.228
90.0, -1571.7970218416478, 0.0, 0.0, 0.0, 0.0, 0.0, 0.0, 0.0, 0.004, -0.048, 0.988, 192.0, 0.0, 0.0, 0.0, 0.0, 0.0, 0.0, 0.0, 0.0, 0.0, 1.715162450228864E9, 0.0, 2024-05-08 13:00:50.228
91.0, -1820.6613446070369, 0.0, 0.0, 0.0, 0.0, 0.0, 0.0, 0.0, 0.004, -0.048, 0.988, 192.0, 0.0, 0.0, 0.0, 0.0, 0.0, 0.0, 0.0, 0.0, 0.0, 1.7151624502288783E9, 0.0, 2024-05-08 13:00:50.228
92.0, -1761.0268904002776, 0.0, 0.0, 0.0, 0.0, 0.0, 0.0, 0.0, 0.004, -0.048, 0.988, 192.0, 0.0, 0.0, 0.0, 0.0, 0.0, 0.0, 0.0, 0.0, 0.0, 1.7151624502288938E9, 0.0, 2024-05-08 13:00:50.228
93.0, -1396.5593453120405, 0.0, 0.0, 0.0, 0.0, 0.0, 0.0, 0.0, 0.004, -0.048, 0.988, 192.0, 0.0, 0.0, 0.0, 0.0, 0.0, 0.0, 0.0, 0.0, 0.0, 1.7151624502289076E9, 0.0, 2024-05-08 13:00:50.228
94.0, -1204.7366743965954, 0.0, 0.0, 0.0, 0.0, 0.0, 0.0, 0.0, 0.004, -0.048, 0.988, 192.0, 0.0, 0.0, 0.0, 0.0, 0.0, 0.0, 0.0, 0.0, 0.0, 1.715162450228922E9, 0.0, 2024-05-08 13:00:50.228
95.0, -1425.348392170476, 0.0, 0.0, 0.0, 0.0, 0.0, 0.0, 0.0, 0.004, -0.048, 0.988, 192.0, 0.0, 0.0, 0.0, 0.0, 0.0, 0.0, 0.0, 0.0, 0.0, 1.7151624502289357E9, 0.0, 2024-05-08 13:00:50.228
96.0, -1628.6822114804045, 0.0, 0.0, 0.0, 0.0, 0.0, 0.0, 0.0, 0.004, -0.048, 0.988, 192.0, 0.0, 0.0, 0.0, 0.0, 0.0, 0.0, 0.0, 0.0, 0.0, 1.7151624502289603E9, 0.0, 2024-05-08 13:00:50.228
97.0, -1482.3006370425985, 0.0, 0.0, 0.0, 0.0, 0.0, 0.0, 0.0, 0.004, -0.048, 0.988, 192.0, 0.0, 0.0, 0.0, 0.0, 0.0, 0.0, 0.0, 0.0, 0.0, 1.715162450228974E9, 0.0, 2024-05-08 13:00:50.228
98.0, -1125.1644641357022, 0.0, 0.0, 0.0, 0.0, 0.0, 0.0, 0.0, 0.004, -0.048, 0.988, 192.0, 0.0, 0.0, 254.0, 144.0, 30.0, 192.0, 0.0, 0.0, 0.0, 1.71516245022899E9, 0.0, 2024-05-08 13:00:50.228
99.0, -938.7732671228966, 0.0, 0.0, 0.0, 0.0, 0.0, 0.0, 0.0, 0.004, -0.048, 0.988, 192.0, 0.0, 0.0, 0.0, 0.0, 0.0, 0.0, 0.0, 0.0, 0.0, 1.7151624502290044E9, 0.0, 2024-05-08 13:00:50.229
100.0, -1106.210184837602, 0.0, 0.0, 0.0, 0.0, 0.0, 0.0, 0.0, 0.004, -0.048, 0.988, 192.0, 0.0, 0.0, 0.0, 0.0, 0.0, 0.0, 0.0, 0.0, 0.0, 1.7151624502290187E9, 0.0, 2024-05-08 13:00:50.229
101.0, -1270.4955065841089, 0.0, 0.0, 0.0, 0.0, 0.0, 0.0, 0.0, 0.004, -0.048, 0.988, 192.0, 0.0, 0.0, 0.0, 0.0, 0.0, 0.0, 0.0, 0.0, 0.0, 1.7151624502290328E9, 0.0, 2024-05-08 13:00:50.229
102.0, -1106.1654813486912, 0.0, 0.0, 0.0, 0.0, 0.0, 0.0, 0.0, 0.004, -0.048, 0.988, 192.0, 0.0, 0.0, 0.0, 0.0, 0.0, 0.0, 0.0, 0.0, 0.0, 1.7151624502290468E9, 0.0, 2024-05-08 13:00:50.229
103.0, -705.7563311763205, 0.0, 0.0, 0.0, 0.0, 0.0, 0.0, 0.0, 0.004, -0.048, 0.988, 192.0, 0.0, 0.0, 0.0, 0.0, 0.0, 0.0, 0.0, 0.0, 0.0, 1.7151624502290606E9, 0.0, 2024-05-08 13:00:50.229
104.0, -470.10188938401814, 0.0, 0.0, 0.0, 0.0, 0.0, 0.0, 0.0, 0.004, -0.048, 0.988, 192.0, 0.0, 0.0, 0.0, 0.0, 0.0, 0.0, 0.0, 0.0, 0.0, 1.7151624502290745E9, 0.0, 2024-05-08 13:00:50.229
105.0, -605.0617224051622, 0.0, 0.0, 0.0, 0.0, 0.0, 0.0, 0.0, 0.004, -0.048, 0.988, 192.0, 0.0, 0.0, 0.0, 0.0, 0.0, 0.0, 0.0, 0.0, 0.0, 1.71516245022909E9, 0.0, 2024-05-08 13:00:50.229
106.0, -743.1731513945045, 0.0, 0.0, 0.0, 0.0, 0.0, 0.0, 0.0, 0.004, -0.048, 0.988, 192.0, 0.0, 0.0, 0.0, 0.0, 0.0, 0.0, 0.0, 0.0, 0.0, 1.715162450229104E9, 0.0, 2024-05-08 13:00:50.229
107.0, -534.2513959707494, 0.0, 0.0, 0.0, 0.0, 0.0, 0.0, 0.0, 0.004, -0.048, 0.988, 192.0, 0.0, 0.0, 0.0, 0.0, 0.0, 0.0, 0.0, 0.0, 0.0, 1.715162450229118E9, 0.0, 2024-05-08 13:00:50.229
108.0, -115.98320197858835, 0.0, 0.0, 0.0, 0.0, 0.0, 0.0, 0.0, 0.004, -0.048, 0.988, 192.0, 0.0, 0.0, 254.0, 160.0, 31.0, 0.0, 0.0, 0.0, 0.0, 1.715162450229132E9, 0.0, 2024-05-08 13:00:50.229
109.0, 150.15901925075283, 0.0, 0.0, 0.0, 0.0, 0.0, 0.0, 0.0, 0.004, -0.048, 0.988, 192.0, 0.0, 0.0, 0.0, 0.0, 0.0, 0.0, 0.0, 0.0, 0.0, 1.7151624502291465E9, 0.0, 2024-05-08 13:00:50.229
110.0, 53.71124192610287, 0.0, 0.0, 0.0, 0.0, 0.0, 0.0, 0.0, 0.004, -0.048, 0.988, 192.0, 0.0, 0.0, 0.0, 0.0, 0.0, 0.0, 0.0, 0.0, 0.0, 1.7151624502291603E9, 0.0, 2024-05-08 13:00:50.229
111.0, -68.6645589667033, 0.0, 0.0, 0.0, 0.0, 0.0, 0.0, 0.0, 0.004, -0.048, 0.988, 192.0, 0.0, 0.0, 0.0, 0.0, 0.0, 0.0, 0.0, 0.0, 0.0, 1.715162450229176E9, 0.0, 2024-05-08 13:00:50.229
112.0, 169.11329854885324, 0.0, 0.0, 0.0, 0.0, 0.0, 0.0, 0.0, 0.004, -0.048, 0.988, 192.0, 0.0, 0.0, 0.0, 0.0, 0.0, 0.0, 0.0, 0.0, 0.0, 1.7151624502291896E9, 0.0, 2024-05-08 13:00:50.229
113.0, 660.1811242319494, 0.0, 0.0, 0.0, 0.0, 0.0, 0.0, 0.0, 0.004, -0.048, 0.988, 192.0, 0.0, 0.0, 0.0, 0.0, 0.0, 0.0, 0.0, 0.0, 0.0, 1.7151624502292128E9, 0.0, 2024-05-08 13:00:50.229
114.0, 944.6741276590977, 0.0, 0.0, 0.0, 0.0, 0.0, 0.0, 0.0, 0.004, -0.048, 0.988, 192.0, 0.0, 0.0, 0.0, 0.0, 0.0, 0.0, 0.0, 0.0, 0.0, 1.7151624502292266E9, 0.0, 2024-05-08 13:00:50.229
115.0, 884.7938042633301, 0.0, 0.0, 0.0, 0.0, 0.0, 0.0, 0.0, 0.004, -0.048, 0.988, 192.0, 0.0, 0.0, 0.0, 0.0, 0.0, 0.0, 0.0, 0.0, 0.0, 1.7151624502292423E9, 0.0, 2024-05-08 13:00:50.229
116.0, 821.091332565705, 0.0, 0.0, 0.0, 0.0, 0.0, 0.0, 0.0, 0.004, -0.048, 0.988, 192.0, 0.0, 0.0, 0.0, 0.0, 0.0, 0.0, 0.0, 0.0, 0.0, 1.7151624502292569E9, 0.0, 2024-05-08 13:00:50.229
117.0, 1121.0517431559258, 0.0, 0.0, 0.0, 0.0, 0.0, 0.0, 0.0, 0.004, -0.048, 0.988, 192.0, 0.0, 0.0, 0.0, 0.0, 0.0, 0.0, 0.0, 0.0, 0.0, 1.7151624502292707E9, 0.0, 2024-05-08 13:00:50.229
118.0, 1627.0728858796224, 0.0, 0.0, 0.0, 0.0, 0.0, 0.0, 0.0, -0.002, -0.05, 0.998, 192.0, 255.0, 240.0, 254.0, 112.0, 31.0, 48.0, 0.0, 0.0, 0.0, 1.7151624502292864E9, 0.0, 2024-05-08 13:00:50.229
119.0, 1971.4015092136276, 0.0, 0.0, 0.0, 0.0, 0.0, 0.0, 0.0, -0.002, -0.05, 0.998, 192.0, 0.0, 0.0, 0.0, 0.0, 0.0, 0.0, 0.0, 0.0, 0.0, 1.7151624502293012E9, 0.0, 2024-05-08 13:00:50.229
120.0, 1962.1031835202198, 0.0, 0.0, 0.0, 0.0, 0.0, 0.0, 0.0, -0.002, -0.05, 0.998, 192.0, 0.0, 0.0, 0.0, 0.0, 0.0, 0.0, 0.0, 0.0, 0.0, 1.7151624502293186E9, 0.0, 2024-05-08 13:00:50.229
121.0, 1929.0896569597314, 0.0, 0.0, 0.0, 0.0, 0.0, 0.0, 0.0, -0.002, -0.05, 0.998, 192.0, 0.0, 0.0, 0.0, 0.0, 0.0, 0.0, 0.0, 0.0, 0.0, 1.7151624507073324E9, 0.0, 2024-05-08 13:00:50.707
122.0, 2244.4280677352035, 0.0, 0.0, 0.0, 0.0, 0.0, 0.0, 0.0, -0.002, -0.05, 0.998, 192.0, 0.0, 0.0, 0.0, 0.0, 0.0, 0.0, 0.0, 0.0, 0.0, 1.7151624507074058E9, 0.0, 2024-05-08 13:00:50.707
123.0, 2845.5558831162316, 0.0, 0.0, 0.0, 0.0, 0.0, 0.0, 0.0, -0.002, -0.05, 0.998, 192.0, 0.0, 0.0, 0.0, 0.0, 0.0, 0.0, 0.0, 0.0, 0.0, 1.7151624507074485E9, 0.0, 2024-05-08 13:00:50.707
124.0, 3265.7016236426384, 0.0, 0.0, 0.0, 0.0, 0.0, 0.0, 0.0, -0.002, -0.05, 0.998, 192.0, 0.0, 0.0, 0.0, 0.0, 0.0, 0.0, 0.0, 0.0, 0.0, 1.7151624507074976E9, 0.0, 2024-05-08 13:00:50.707
125.0, 3298.4692810141187, 0.0, 0.0, 0.0, 0.0, 0.0, 0.0, 0.0, -0.002, -0.05, 0.998, 192.0, 0.0, 0.0, 0.0, 0.0, 0.0, 0.0, 0.0, 0.0, 0.0, 1.7151624507075331E9, 0.0, 2024-05-08 13:00:50.707
126.0, 3332.0863046749005, 0.0, 0.0, 0.0, 0.0, 0.0, 0.0, 0.0, -0.002, -0.05, 0.998, 192.0, 0.0, 0.0, 0.0, 0.0, 0.0, 0.0, 0.0, 0.0, 0.0, 1.7151624507075803E9, 0.0, 2024-05-08 13:00:50.707
127.0, 3719.3302773630953, 0.0, 0.0, 0.0, 0.0, 0.0, 0.0, 0.0, -0.002, -0.05, 0.998, 192.0, 0.0, 0.0, 0.0, 0.0, 0.0, 0.0, 0.0, 0.0, 0.0, 1.715162450707622E9, 0.0, 2024-05-08 13:00:50.707
128.0, 4358.970148440618, 0.0, 0.0, 0.0, 0.0, 0.0, 0.0, 0.0, -0.004, -0.05, 0.99, 192.0, 255.0, 224.0, 254.0, 112.0, 30.0, 240.0, 0.0, 0.0, 0.0, 1.7151624507076786E9, 0.0, 2024-05-08 13:00:50.707
129.0, 4835.308174527666, 0.0, 0.0, 0.0, 0.0, 0.0, 0.0, 0.0, -0.004, -0.05, 0.99, 192.0, 0.0, 0.0, 0.0, 0.0, 0.0, 0.0, 0.0, 0.0, 0.0, 1.7151624507077267E9, 0.0, 2024-05-08 13:00:50.707
130.0, 4902.586925338141, 0.0, 0.0, 0.0, 0.0, 0.0, 0.0, 0.0, -0.004, -0.05, 0.99, 192.0, 0.0, 0.0, 0.0, 0.0, 0.0, 0.0, 0.0, 0.0, 0.0, 1.7151624507077787E9, 0.0, 2024-05-08 13:00:50.707
131.0, 4933.8793675755705, 0.0, 0.0, 0.0, 0.0, 0.0, 0.0, 0.0, -0.004, -0.05, 0.99, 192.0, 0.0, 0.0, 0.0, 0.0, 0.0, 0.0, 0.0, 0.0, 0.0, 1.7151624507078693E9, 0.0, 2024-05-08 13:00:50.707
132.0, 5274.296435629897, 0.0, 0.0, 0.0, 0.0, 0.0, 0.0, 0.0, -0.004, -0.05, 0.99, 192.0, 0.0, 0.0, 0.0, 0.0, 0.0, 0.0, 0.0, 0.0, 0.0, 1.7151624507079E9, 0.0, 2024-05-08 13:00:50.707
133.0, 5838.923852315409, 0.0, 0.0, 0.0, 0.0, 0.0, 0.0, 0.0, -0.004, -0.05, 0.99, 192.0, 0.0, 0.0, 0.0, 0.0, 0.0, 0.0, 0.0, 0.0, 0.0, 1.7151624507079284E9, 0.0, 2024-05-08 13:00:50.707
134.0, 6229.9452698165505, 0.0, 0.0, 0.0, 0.0, 0.0, 0.0, 0.0, -0.004, -0.05, 0.99, 192.0, 0.0, 0.0, 0.0, 0.0, 0.0, 0.0, 0.0, 0.0, 0.0, 1.7151624507079425E9, 0.0, 2024-05-08 13:00:50.707
135.0, 6181.88901923764, 0.0, 0.0, 0.0, 0.0, 0.0, 0.0, 0.0, -0.004, -0.05, 0.99, 192.0, 0.0, 0.0, 0.0, 0.0, 0.0, 0.0, 0.0, 0.0, 0.0, 1.7151624507079577E9, 0.0, 2024-05-08 13:00:50.707
136.0, 6120.600535941188, 0.0, 0.0, 0.0, 0.0, 0.0, 0.0, 0.0, -0.004, -0.05, 0.99, 192.0, 0.0, 0.0, 0.0, 0.0, 0.0, 0.0, 0.0, 0.0, 0.0, 1.7151624507079725E9, 0.0, 2024-05-08 13:00:50.707
137.0, 6369.241341262024, 0.0, 0.0, 0.0, 0.0, 0.0, 0.0, 0.0, -0.004, -0.05, 0.99, 192.0, 0.0, 0.0, 0.0, 0.0, 0.0, 0.0, 0.0, 0.0, 0.0, 1.715162450707987E9, 0.0, 2024-05-08 13:00:50.707
138.0, 6846.652251082927, 0.0, 0.0, 0.0, 0.0, 0.0, 0.0, 0.0, -0.004, -0.05, 0.988, 192.0, 255.0, 224.0, 254.0, 112.0, 30.0, 224.0, 0.0, 0.0, 0.0, 1.7151624507080023E9, 0.0, 2024-05-08 13:00:50.708
139.0, 7136.084990034698, 0.0, 0.0, 0.0, 0.0, 0.0, 0.0, 0.0, -0.004, -0.05, 0.988, 192.0, 0.0, 0.0, 0.0, 0.0, 0.0, 0.0, 0.0, 0.0, 0.0, 1.715162450708017E9, 0.0, 2024-05-08 13:00:50.708
140.0, 7042.274718555775, 0.0, 0.0, 0.0, 0.0, 0.0, 0.0, 0.0, -0.004, -0.05, 0.988, 192.0, 0.0, 0.0, 0.0, 0.0, 0.0, 0.0, 0.0, 0.0, 0.0, 1.7151624507080307E9, 0.0, 2024-05-08 13:00:50.708
141.0, 6975.174781700944, 0.0, 0.0, 0.0, 0.0, 0.0, 0.0, 0.0, -0.004, -0.05, 0.988, 192.0, 0.0, 0.0, 0.0, 0.0, 0.0, 0.0, 0.0, 0.0, 0.0, 1.7151624507080443E9, 0.0, 2024-05-08 13:00:50.708
142.0, 7205.4648048239715, 0.0, 0.0, 0.0, 0.0, 0.0, 0.0, 0.0, -0.004, -0.05, 0.988, 192.0, 0.0, 0.0, 0.0, 0.0, 0.0, 0.0, 0.0, 0.0, 0.0, 1.715162450708058E9, 0.0, 2024-05-08 13:00:50.708
143.0, 7689.80475542602, 0.0, 0.0, 0.0, 0.0, 0.0, 0.0, 0.0, -0.004, -0.05, 0.988, 192.0, 0.0, 0.0, 0.0, 0.0, 0.0, 0.0, 0.0, 0.0, 0.0, 1.7151624507080717E9, 0.0, 2024-05-08 13:00:50.708
144.0, 7978.589293788588, 0.0, 0.0, 0.0, 0.0, 0.0, 0.0, 0.0, -0.004, -0.05, 0.988, 192.0, 0.0, 0.0, 0.0, 0.0, 0.0, 0.0, 0.0, 0.0, 0.0, 1.7151624507080872E9, 0.0, 2024-05-08 13:00:50.708
145.0, 7868.12697269046, 0.0, 0.0, 0.0, 0.0, 0.0, 0.0, 0.0, -0.004, -0.05, 0.988, 192.0, 0.0, 0.0, 0.0, 0.0, 0.0, 0.0, 0.0, 0.0, 0.0, 1.7151624507081008E9, 0.0, 2024-05-08 13:00:50.708
146.0, 7767.9688057862295, 0.0, 0.0, 0.0, 0.0, 0.0, 0.0, 0.0, -0.004, -0.05, 0.988, 192.0, 0.0, 0.0, 0.0, 0.0, 0.0, 0.0, 0.0, 0.0, 0.0, 1.7151624507081144E9, 0.0, 2024-05-08 13:00:50.708
147.0, 7951.923662653407, 0.0, 0.0, 0.0, 0.0, 0.0, 0.0, 0.0, -0.004, -0.05, 0.988, 192.0, 0.0, 0.0, 0.0, 0.0, 0.0, 0.0, 0.0, 0.0, 0.0, 1.715162450708128E9, 0.0, 2024-05-08 13:00:50.708
148.0, 8381.859467251237, 0.0, 0.0, 0.0, 0.0, 0.0, 0.0, 0.0, -0.002, -0.048, 0.99, 192.0, 255.0, 240.0, 254.0, 128.0, 30.0, 240.0, 0.0, 0.0, 0.0, 1.7151624507081509E9, 0.0, 2024-05-08 13:00:50.708
149.0, 8614.496423542074, 0.0, 0.0, 0.0, 0.0, 0.0, 0.0, 0.0, -0.002, -0.048, 0.99, 192.0, 0.0, 0.0, 0.0, 0.0, 0.0, 0.0, 0.0, 0.0, 0.0, 1.7151624507081656E9, 0.0, 2024-05-08 13:00:50.708
150.0, 8401.03726399389, 0.0, 0.0, 0.0, 0.0, 0.0, 0.0, 0.0, -0.002, -0.048, 0.99, 192.0, 0.0, 0.0, 0.0, 0.0, 0.0, 0.0, 0.0, 0.0, 0.0, 1.7151624507081792E9, 0.0, 2024-05-08 13:00:50.708
151.0, 8110.039902930249, 0.0, 0.0, 0.0, 0.0, 0.0, 0.0, 0.0, -0.002, -0.048, 0.99, 192.0, 0.0, 0.0, 0.0, 0.0, 0.0, 0.0, 0.0, 0.0, 0.0, 1.7151624507081947E9, 0.0, 2024-05-08 13:00:50.708
152.0, 8153.894025551561, 0.0, 0.0, 0.0, 0.0, 0.0, 0.0, 0.0, -0.002, -0.048, 0.99, 192.0, 0.0, 0.0, 0.0, 0.0, 0.0, 0.0, 0.0, 0.0, 0.0, 1.7151624507082083E9, 0.0, 2024-05-08 13:00:50.708
153.0, 8469.478305516042, 0.0, 0.0, 0.0, 0.0, 0.0, 0.0, 0.0, -0.002, -0.048, 0.99, 192.0, 0.0, 0.0, 0.0, 0.0, 0.0, 0.0, 0.0, 0.0, 0.0, 1.715162450708222E9, 0.0, 2024-05-08 13:00:50.708
154.0, 8591.250609308554, 0.0, 0.0, 0.0, 0.0, 0.0, 0.0, 0.0, -0.002, -0.048, 0.99, 192.0, 0.0, 0.0, 0.0, 0.0, 0.0, 0.0, 0.0, 0.0, 0.0, 1.7151624507082357E9, 0.0, 2024-05-08 13:00:50.708
155.0, 8292.385434196643, 0.0, 0.0, 0.0, 0.0, 0.0, 0.0, 0.0, -0.002, -0.048, 0.99, 192.0, 0.0, 0.0, 0.0, 0.0, 0.0, 0.0, 0.0, 0.0, 0.0, 1.7151624507082496E9, 0.0, 2024-05-08 13:00:50.708
156.0, 7974.968311186828, 0.0, 0.0, 0.0, 0.0, 0.0, 0.0, 0.0, -0.002, -0.048, 0.99, 192.0, 0.0, 0.0, 0.0, 0.0, 0.0, 0.0, 0.0, 0.0, 0.0, 1.7151624507082632E9, 0.0, 2024-05-08 13:00:50.708
157.0, 8043.968146320361, 0.0, 0.0, 0.0, 0.0, 0.0, 0.0, 0.0, -0.002, -0.048, 0.99, 192.0, 0.0, 0.0, 0.0, 0.0, 0.0, 0.0, 0.0, 0.0, 0.0, 1.715162450708279E9, 0.0, 2024-05-08 13:00:50.708
158.0, 8394.890534268681, 0.0, 0.0, 0.0, 0.0, 0.0, 0.0, 0.0, 0.004, -0.046, 0.992, 192.0, 0.0, 32.0, 254.0, 144.0, 31.0, 0.0, 0.0, 0.0, 0.0, 1.7151624507082925E9, 0.0, 2024-05-08 13:00:50.708
159.0, 8536.511187137507, 0.0, 0.0, 0.0, 0.0, 0.0, 0.0, 0.0, 0.004, -0.046, 0.992, 192.0, 0.0, 0.0, 0.0, 0.0, 0.0, 0.0, 0.0, 0.0, 0.0, 1.7151624507083068E9, 0.0, 2024-05-08 13:00:50.708
160.0, 8238.58478529272, 0.0, 0.0, 0.0, 0.0, 0.0, 0.0, 0.0, 0.004, -0.046, 0.992, 192.0, 0.0, 0.0, 0.0, 0.0, 0.0, 0.0, 0.0, 0.0, 0.0, 1.7151624507083209E9, 0.0, 2024-05-08 13:00:50.708
161.0, 7966.407593060446, 0.0, 0.0, 0.0, 0.0, 0.0, 0.0, 0.0, 0.004, -0.046, 0.992, 192.0, 0.0, 0.0, 0.0, 0.0, 0.0, 0.0, 0.0, 0.0, 0.0, 1.7151624507083344E9, 0.0, 2024-05-08 13:00:50.708
162.0, 8125.3284961376785, 0.0, 0.0, 0.0, 0.0, 0.0, 0.0, 0.0, 0.004, -0.046, 0.992, 192.0, 0.0, 0.0, 0.0, 0.0, 0.0, 0.0, 0.0, 0.0, 0.0, 1.715162450708348E9, 0.0, 2024-05-08 13:00:50.708
163.0, 8642.27964190002, 0.0, 0.0, 0.0, 0.0, 0.0, 0.0, 0.0, 0.004, -0.046, 0.992, 192.0, 0.0, 0.0, 0.0, 0.0, 0.0, 0.0, 0.0, 0.0, 0.0, 1.7151624507083616E9, 0.0, 2024-05-08 13:00:50.708
164.0, 8998.611152006526, 0.0, 0.0, 0.0, 0.0, 0.0, 0.0, 0.0, 0.004, -0.046, 0.992, 192.0, 0.0, 0.0, 0.0, 0.0, 0.0, 0.0, 0.0, 0.0, 0.0, 1.7151624507083771E9, 0.0, 2024-05-08 13:00:50.708
165.0, 8940.67543037837, 0.0, 0.0, 0.0, 0.0, 0.0, 0.0, 0.0, 0.004, -0.046, 0.992, 192.0, 0.0, 0.0, 0.0, 0.0, 0.0, 0.0, 0.0, 0.0, 0.0, 1.7151624507083983E9, 0.0, 2024-05-08 13:00:50.708
166.0, 8922.056427247098, 0.0, 0.0, 0.0, 0.0, 0.0, 0.0, 0.0, 0.004, -0.046, 0.992, 192.0, 0.0, 0.0, 0.0, 0.0, 0.0, 0.0, 0.0, 0.0, 0.0, 1.715162450708412E9, 0.0, 2024-05-08 13:00:50.708
167.0, 9373.04757512183, 0.0, 0.0, 0.0, 0.0, 0.0, 0.0, 0.0, 0.004, -0.046, 0.992, 192.0, 0.0, 0.0, 0.0, 0.0, 0.0, 0.0, 0.0, 0.0, 0.0, 1.7151624507084255E9, 0.0, 2024-05-08 13:00:50.708
168.0, 10199.413919378987, 0.0, 0.0, 0.0, 0.0, 0.0, 0.0, 0.0, -0.004, -0.046, 0.99, 192.0, 255.0, 224.0, 254.0, 144.0, 30.0, 240.0, 0.0, 0.0, 0.0, 1.7151624507084396E9, 0.0, 2024-05-08 13:00:50.708
169.0, 10913.865079148422, 0.0, 0.0, 0.0, 0.0, 0.0, 0.0, 0.0, -0.004, -0.046, 0.99, 192.0, 0.0, 0.0, 0.0, 0.0, 0.0, 0.0, 0.0, 0.0, 0.0, 1.715162450708454E9, 0.0, 2024-05-08 13:00:50.708
170.0, 11207.231725124328, 0.0, 0.0, 0.0, 0.0, 0.0, 0.0, 0.0, -0.004, -0.046, 0.99, 192.0, 0.0, 0.0, 0.0, 0.0, 0.0, 0.0, 0.0, 0.0, 0.0, 1.7151624507084677E9, 0.0, 2024-05-08 13:00:50.708
171.0, 11379.20604696346, 0.0, 0.0, 0.0, 0.0, 0.0, 0.0, 0.0, -0.004, -0.046, 0.99, 192.0, 0.0, 0.0, 0.0, 0.0, 0.0, 0.0, 0.0, 0.0, 0.0, 1.7151624507084832E9, 0.0, 2024-05-08 13:00:50.708
172.0, 11804.470336970131, 0.0, 0.0, 0.0, 0.0, 0.0, 0.0, 0.0, -0.004, -0.046, 0.99, 192.0, 0.0, 0.0, 0.0, 0.0, 0.0, 0.0, 0.0, 0.0, 0.0, 1.7151624507084968E9, 0.0, 2024-05-08 13:00:50.708
173.0, 12410.850812298157, 0.0, 0.0, 0.0, 0.0, 0.0, 0.0, 0.0, -0.004, -0.046, 0.99, 192.0, 0.0, 0.0, 0.0, 0.0, 0.0, 0.0, 0.0, 0.0, 0.0, 1.7151624507085106E9, 0.0, 2024-05-08 13:00:50.708
174.0, 12721.294191037918, 0.0, 0.0, 0.0, 0.0, 0.0, 0.0, 0.0, -0.004, -0.046, 0.99, 192.0, 0.0, 0.0, 0.0, 0.0, 0.0, 0.0, 0.0, 0.0, 0.0, 1.7151624507085245E9, 0.0, 2024-05-08 13:00:50.708
175.0, 12514.942886226521, 0.0, 0.0, 0.0, 0.0, 0.0, 0.0, 0.0, -0.004, -0.046, 0.99, 192.0, 0.0, 0.0, 0.0, 0.0, 0.0, 0.0, 0.0, 0.0, 0.0, 1.715162450708538E9, 0.0, 2024-05-08 13:00:50.708
176.0, 12270.303043163187, 0.0, 0.0, 0.0, 0.0, 0.0, 0.0, 0.0, -0.004, -0.046, 0.99, 192.0, 0.0, 0.0, 0.0, 0.0, 0.0, 0.0, 0.0, 0.0, 0.0, 1.7151624507085516E9, 0.0, 2024-05-08 13:00:50.708
177.0, 12276.159200210477, 0.0, 0.0, 0.0, 0.0, 0.0, 0.0, 0.0, -0.004, -0.046, 0.99, 192.0, 0.0, 0.0, 0.0, 0.0, 0.0, 0.0, 0.0, 0.0, 0.0, 1.7151624507085743E9, 0.0, 2024-05-08 13:00:50.708
178.0, 12581.975767847987, 0.0, 0.0, 0.0, 0.0, 0.0, 0.0, 0.0, -0.004, -0.048, 0.99, 192.0, 255.0, 224.0, 254.0, 128.0, 30.0, 240.0, 0.0, 0.0, 0.0, 1.715162450708592E9, 0.0, 2024-05-08 13:00:50.708
179.0, 12720.333066026338, 0.0, 0.0, 0.0, 0.0, 0.0, 0.0, 0.0, -0.004, -0.048, 0.99, 192.0, 0.0, 0.0, 0.0, 0.0, 0.0, 0.0, 0.0, 0.0, 0.0, 1.7151624507086165E9, 0.0, 2024-05-08 13:00:50.708
180.0, 12382.508800328827, 0.0, 0.0, 0.0, 0.0, 0.0, 0.0, 0.0, -0.004, -0.048, 0.99, 192.0, 0.0, 0.0, 0.0, 0.0, 0.0, 0.0, 0.0, 0.0, 0.0, 1.7151624507086313E9, 0.0, 2024-05-08 13:00:50.708
181.0, 11994.750737518161, 0.0, 0.0, 0.0, 0.0, 0.0, 0.0, 0.0, -0.004, -0.048, 0.99, 192.0, 0.0, 0.0, 0.0, 0.0, 0.0, 0.0, 0.0, 0.0, 0.0, 1.715162450708645E9, 0.0, 2024-05-08 13:00:50.708
182.0, 11984.871266468916, 0.0, 0.0, 0.0, 0.0, 0.0, 0.0, 0.0, -0.004, -0.048, 0.99, 192.0, 0.0, 0.0, 0.0, 0.0, 0.0, 0.0, 0.0, 0.0, 0.0, 1.7151624507086587E9, 0.0, 2024-05-08 13:00:50.708
183.0, 12277.85793278908, 0.0, 0.0, 0.0, 0.0, 0.0, 0.0, 0.0, -0.004, -0.048, 0.99, 192.0, 0.0, 0.0, 0.0, 0.0, 0.0, 0.0, 0.0, 0.0, 0.0, 1.7151624507086859E9, 0.0, 2024-05-08 13:00:50.708
184.0, 12421.534946147794, 0.0, 0.0, 0.0, 0.0, 0.0, 0.0, 0.0, -0.004, -0.048, 0.99, 192.0, 0.0, 0.0, 0.0, 0.0, 0.0, 0.0, 0.0, 0.0, 0.0, 1.7151624507087016E9, 0.0, 2024-05-08 13:00:50.708
185.0, 12049.065476544558, 0.0, 0.0, 0.0, 0.0, 0.0, 0.0, 0.0, -0.004, -0.048, 0.99, 192.0, 0.0, 0.0, 0.0, 0.0, 0.0, 0.0, 0.0, 0.0, 0.0, 1.7151624507087152E9, 0.0, 2024-05-08 13:00:50.708
186.0, 11641.526119890943, 0.0, 0.0, 0.0, 0.0, 0.0, 0.0, 0.0, -0.004, -0.048, 0.99, 192.0, 0.0, 0.0, 0.0, 0.0, 0.0, 0.0, 0.0, 0.0, 0.0, 1.7151624507087288E9, 0.0, 2024-05-08 13:00:50.708
187.0, 11594.72156700153, 0.0, 0.0, 0.0, 0.0, 0.0, 0.0, 0.0, -0.004, -0.048, 0.99, 192.0, 0.0, 0.0, 0.0, 0.0, 0.0, 0.0, 0.0, 0.0, 0.0, 1.7151624507087424E9, 0.0, 2024-05-08 13:00:50.708
188.0, 11833.102921617381, 0.0, 0.0, 0.0, 0.0, 0.0, 0.0, 0.0, -0.002, -0.052000000000000005, 0.996, 192.0, 255.0, 240.0, 254.0, 96.0, 31.0, 32.0, 0.0, 0.0, 0.0, 1.715162450708756E9, 0.0, 2024-05-08 13:00:50.708
189.0, 11950.31546954101, 0.0, 0.0, 0.0, 0.0, 0.0, 0.0, 0.0, -0.002, -0.052000000000000005, 0.996, 192.0, 0.0, 0.0, 0.0, 0.0, 0.0, 0.0, 0.0, 0.0, 0.0, 1.7151624507087705E9, 0.0, 2024-05-08 13:00:50.708
190.0, 11581.735203472997, 0.0, 0.0, 0.0, 0.0, 0.0, 0.0, 0.0, -0.002, -0.052000000000000005, 0.996, 192.0, 0.0, 0.0, 0.0, 0.0, 0.0, 0.0, 0.0, 0.0, 0.0, 1.715162450708786E9, 0.0, 2024-05-08 13:00:50.708
191.0, 11110.448671632848, 0.0, 0.0, 0.0, 0.0, 0.0, 0.0, 0.0, -0.002, -0.052000000000000005, 0.996, 192.0, 0.0, 0.0, 0.0, 0.0, 0.0, 0.0, 0.0, 0.0, 0.0, 1.7151624507087996E9, 0.0, 2024-05-08 13:00:50.708
192.0, 11032.03875208363, 0.0, 0.0, 0.0, 0.0, 0.0, 0.0, 0.0, -0.002, -0.052000000000000005, 0.996, 192.0, 0.0, 0.0, 0.0, 0.0, 0.0, 0.0, 0.0, 0.0, 0.0, 1.7151624507088132E9, 0.0, 2024-05-08 13:00:50.708
193.0, 11291.162525554006, 0.0, 0.0, 0.0, 0.0, 0.0, 0.0, 0.0, -0.002, -0.052000000000000005, 0.996, 192.0, 0.0, 0.0, 0.0, 0.0, 0.0, 0.0, 0.0, 0.0, 0.0, 1.7151624507088265E9, 0.0, 2024-05-08 13:00:50.708
194.0, 11391.946541302985, 0.0, 0.0, 0.0, 0.0, 0.0, 0.0, 0.0, -0.002, -0.052000000000000005, 0.996, 192.0, 0.0, 0.0, 0.0, 0.0, 0.0, 0.0, 0.0, 0.0, 0.0, 1.7151624507088401E9, 0.0, 2024-05-08 13:00:50.708
195.0, 11020.281734500139, 0.0, 0.0, 0.0, 0.0, 0.0, 0.0, 0.0, -0.002, -0.052000000000000005, 0.996, 192.0, 0.0, 0.0, 0.0, 0.0, 0.0, 0.0, 0.0, 0.0, 0.0, 1.7151624507088535E9, 0.0, 2024-05-08 13:00:50.708
196.0, 10604.963970776078, 0.0, 0.0, 0.0, 0.0, 0.0, 0.0, 0.0, -0.002, -0.052000000000000005, 0.996, 192.0, 0.0, 0.0, 0.0, 0.0, 0.0, 0.0, 0.0, 0.0, 0.0, 1.7151624507088673E9, 0.0, 2024-05-08 13:00:50.708
197.0, 10613.077654013356, 0.0, 0.0, 0.0, 0.0, 0.0, 0.0, 0.0, 0.004, -0.052000000000000005, 0.996, 192.0, 0.0, 32.0, 254.0, 96.0, 31.0, 32.0, 0.0, 0.0, 0.0, 1.7151624507088826E9, 0.0, 2024-05-08 13:00:50.708
198.0, 10988.922237029343, 0.0, 0.0, 0.0, 0.0, 0.0, 0.0, 0.0, 0.004, -0.052000000000000005, 0.996, 192.0, 0.0, 0.0, 0.0, 0.0, 0.0, 0.0, 0.0, 0.0, 0.0, 1.7151624507088969E9, 0.0, 2024-05-08 13:00:50.708
199.0, 11209.869230970053, 0.0, 0.0, 0.0, 0.0, 0.0, 0.0, 0.0, 0.004, -0.052000000000000005, 0.996, 192.0, 0.0, 0.0, 0.0, 0.0, 0.0, 0.0, 0.0, 0.0, 0.0, 1.7151624507089117E9, 0.0, 2024-05-08 13:00:50.708
200.0, 10964.871759995433, 0.0, 0.0, 0.0, 0.0, 0.0, 0.0, 0.0, 0.004, -0.052000000000000005, 0.996, 192.0, 0.0, 0.0, 0.0, 0.0, 0.0, 0.0, 0.0, 0.0, 0.0, 1.715162450708934E9, 0.0, 2024-05-08 13:00:50.708
201.0, 10664.888997660757, 0.0, 0.0, 0.0, 0.0, 0.0, 0.0, 0.0, 0.004, -0.052000000000000005, 0.996, 192.0, 0.0, 0.0, 0.0, 0.0, 0.0, 0.0, 0.0, 0.0, 0.0, 1.7151624507089477E9, 0.0, 2024-05-08 13:00:50.708
202.0, 10835.633973554848, 0.0, 0.0, 0.0, 0.0, 0.0, 0.0, 0.0, 0.004, -0.052000000000000005, 0.996, 192.0, 0.0, 0.0, 0.0, 0.0, 0.0, 0.0, 0.0, 0.0, 0.0, 1.7151624507089615E9, 0.0, 2024-05-08 13:00:50.708
203.0, 11410.63259966762, 0.0, 0.0, 0.0, 0.0, 0.0, 0.0, 0.0, 0.004, -0.052000000000000005, 0.996, 192.0, 0.0, 0.0, 0.0, 0.0, 0.0, 0.0, 0.0, 0.0, 0.0, 1.7151624507089791E9, 0.0, 2024-05-08 13:00:50.708
204.0, 11843.00474441108, 0.0, 0.0, 0.0, 0.0, 0.0, 0.0, 0.0, 0.004, -0.052000000000000005, 0.996, 192.0, 0.0, 0.0, 0.0, 0.0, 0.0, 0.0, 0.0, 0.0, 0.0, 1.7151624507089949E9, 0.0, 2024-05-08 13:00:50.708
205.0, 11777.067098267926, 0.0, 0.0, 0.0, 0.0, 0.0, 0.0, 0.0, 0.004, -0.052000000000000005, 0.996, 192.0, 0.0, 0.0, 0.0, 0.0, 0.0, 0.0, 0.0, 0.0, 0.0, 1.7151624507090085E9, 0.0, 2024-05-08 13:00:50.709
206.0, 11630.417302896656, 0.0, 0.0, 0.0, 0.0, 0.0, 0.0, 0.0, 0.004, -0.052000000000000005, 0.996, 192.0, 0.0, 0.0, 0.0, 0.0, 0.0, 0.0, 0.0, 0.0, 0.0, 1.715162450709022E9, 0.0, 2024-05-08 13:00:50.709
207.0, 11866.988166211626, 0.0, 0.0, 0.0, 0.0, 0.0, 0.0, 0.0, 0.004, -0.052000000000000005, 0.996, 192.0, 0.0, 0.0, 254.0, 112.0, 31.0, 32.0, 0.0, 0.0, 0.0, 1.7151624507090356E9, 0.0, 2024-05-08 13:00:50.709
208.0, 12452.045077329289, 0.0, 0.0, 0.0, 0.0, 0.0, 0.0, 0.0, 0.004, -0.052000000000000005, 0.996, 192.0, 0.0, 0.0, 0.0, 0.0, 0.0, 0.0, 0.0, 0.0, 0.0, 1.7151624507090497E9, 0.0, 2024-05-08 13:00:50.709
209.0, 12887.211190129661, 0.0, 0.0, 0.0, 0.0, 0.0, 0.0, 0.0, 0.004, -0.052000000000000005, 0.996, 192.0, 0.0, 0.0, 0.0, 0.0, 0.0, 0.0, 0.0, 0.0, 0.0, 1.7151624507090635E9, 0.0, 2024-05-08 13:00:50.709
210.0, 12884.50662905057, 0.0, 0.0, 0.0, 0.0, 0.0, 0.0, 0.0, 0.004, -0.052000000000000005, 0.996, 192.0, 0.0, 0.0, 0.0, 0.0, 0.0, 0.0, 0.0, 0.0, 0.0, 1.7151624507090788E9, 0.0, 2024-05-08 13:00:50.709
211.0, 12809.404767680737, 0.0, 0.0, 0.0, 0.0, 0.0, 0.0, 0.0, 0.004, -0.052000000000000005, 0.996, 192.0, 0.0, 0.0, 0.0, 0.0, 0.0, 0.0, 0.0, 0.0, 0.0, 1.7151624507090926E9, 0.0, 2024-05-08 13:00:50.709
212.0, 13136.947230928807, 0.0, 0.0, 0.0, 0.0, 0.0, 0.0, 0.0, 0.004, -0.052000000000000005, 0.996, 192.0, 0.0, 0.0, 0.0, 0.0, 0.0, 0.0, 0.0, 0.0, 0.0, 1.7151624507091064E9, 0.0, 2024-05-08 13:00:50.709
213.0, 13780.342195074822, 0.0, 0.0, 0.0, 0.0, 0.0, 0.0, 0.0, 0.004, -0.052000000000000005, 0.996, 192.0, 0.0, 0.0, 0.0, 0.0, 0.0, 0.0, 0.0, 0.0, 0.0, 1.71516245070912E9, 0.0, 2024-05-08 13:00:50.709
214.0, 14239.268212231185, 0.0, 0.0, 0.0, 0.0, 0.0, 0.0, 0.0, 0.004, -0.052000000000000005, 0.996, 192.0, 0.0, 0.0, 0.0, 0.0, 0.0, 0.0, 0.0, 0.0, 0.0, 1.7151624507091336E9, 0.0, 2024-05-08 13:00:50.709
215.0, 14151.13528384391, 0.0, 0.0, 0.0, 0.0, 0.0, 0.0, 0.0, 0.004, -0.052000000000000005, 0.996, 192.0, 0.0, 0.0, 0.0, 0.0, 0.0, 0.0, 0.0, 0.0, 0.0, 1.7151624507091472E9, 0.0, 2024-05-08 13:00:50.709
216.0, 13918.408920575253, 0.0, 0.0, 0.0, 0.0, 0.0, 0.0, 0.0, 0.004, -0.052000000000000005, 0.996, 192.0, 0.0, 0.0, 0.0, 0.0, 0.0, 0.0, 0.0, 0.0, 0.0, 1.7151624507091627E9, 0.0, 2024-05-08 13:00:50.709
217.0, 14079.564998098016, 0.0, 0.0, 0.0, 0.0, 0.0, 0.0, 0.0, 0.002, -0.048, 0.998, 192.0, 0.0, 16.0, 254.0, 128.0, 31.0, 48.0, 0.0, 0.0, 0.0, 1.7151624507091763E9, 0.0, 2024-05-08 13:00:50.709
218.0, 14621.70655986149, 0.0, 0.0, 0.0, 0.0, 0.0, 0.0, 0.0, 0.002, -0.048, 0.998, 192.0, 0.0, 0.0, 0.0, 0.0, 0.0, 0.0, 0.0, 0.0, 0.0, 1.7151624507091985E9, 0.0, 2024-05-08 13:00:50.709
219.0, 14954.14405514527, 0.0, 0.0, 0.0, 0.0, 0.0, 0.0, 0.0, 0.002, -0.048, 0.998, 192.0, 0.0, 0.0, 0.0, 0.0, 0.0, 0.0, 0.0, 0.0, 0.0, 1.7151624507092123E9, 0.0, 2024-05-08 13:00:50.709
220.0, 14766.992898820985, 0.0, 0.0, 0.0, 0.0, 0.0, 0.0, 0.0, 0.002, -0.048, 0.998, 192.0, 0.0, 0.0, 0.0, 0.0, 0.0, 0.0, 0.0, 0.0, 0.0, 1.715162450709226E9, 0.0, 2024-05-08 13:00:50.709
221.0, 14458.985860226854, 0.0, 0.0, 0.0, 0.0, 0.0, 0.0, 0.0, 0.002, -0.048, 0.998, 192.0, 0.0, 0.0, 0.0, 0.0, 0.0, 0.0, 0.0, 0.0, 0.0, 1.7151624507092395E9, 0.0, 2024-05-08 13:00:50.709
222.0, 14561.289794598795, 0.0, 0.0, 0.0, 0.0, 0.0, 0.0, 0.0, 0.002, -0.048, 0.998, 192.0, 0.0, 0.0, 0.0, 0.0, 0.0, 0.0, 0.0, 0.0, 0.0, 1.7151624507092533E9, 0.0, 2024-05-08 13:00:50.709
223.0, 15005.508363903567, 0.0, 0.0, 0.0, 0.0, 0.0, 0.0, 0.0, 0.002, -0.048, 0.998, 192.0, 0.0, 0.0, 0.0, 0.0, 0.0, 0.0, 0.0, 0.0, 0.0, 1.7151624507092683E9, 0.0, 2024-05-08 13:00:50.709
224.0, 15291.02954757566, 0.0, 0.0, 0.0, 0.0, 0.0, 0.0, 0.0, 0.002, -0.048, 0.998, 192.0, 0.0, 0.0, 0.0, 0.0, 0.0, 0.0, 0.0, 0.0, 0.0, 1.715162450709282E9, 0.0, 2024-05-08 13:00:50.709
225.0, 14995.58418936541, 0.0, 0.0, 0.0, 0.0, 0.0, 0.0, 0.0, 0.002, -0.048, 0.998, 192.0, 0.0, 0.0, 0.0, 0.0, 0.0, 0.0, 0.0, 0.0, 0.0, 1.7151624507092957E9, 0.0, 2024-05-08 13:00:50.709
226.0, 14542.804901934256, 0.0, 0.0, 0.0, 0.0, 0.0, 0.0, 0.0, 0.002, -0.048, 0.998, 192.0, 0.0, 0.0, 0.0, 0.0, 0.0, 0.0, 0.0, 0.0, 0.0, 1.7151624507093093E9, 0.0, 2024-05-08 13:00:50.709
227.0, 14494.323968210694, 0.0, 0.0, 0.0, 0.0, 0.0, 0.0, 0.0, 0.004, -0.046, 0.994, 192.0, 0.0, 32.0, 254.0, 144.0, 31.0, 16.0, 0.0, 0.0, 0.0, 1.715162450709323E9, 0.0, 2024-05-08 13:00:50.709
228.0, 14800.721681204044, 0.0, 0.0, 0.0, 0.0, 0.0, 0.0, 0.0, 0.004, -0.046, 0.994, 192.0, 0.0, 0.0, 0.0, 0.0, 0.0, 0.0, 0.0, 0.0, 0.0, 1.7151624507093375E9, 0.0, 2024-05-08 13:00:50.709
229.0, 14880.830333331864, 0.0, 0.0, 0.0, 0.0, 0.0, 0.0, 0.0, 0.004, -0.046, 0.994, 192.0, 0.0, 0.0, 0.0, 0.0, 0.0, 0.0, 0.0, 0.0, 0.0, 1.7151624507093513E9, 0.0, 2024-05-08 13:00:50.709
230.0, 14394.925760617944, 0.0, 0.0, 0.0, 0.0, 0.0, 0.0, 0.0, 0.004, -0.046, 0.994, 192.0, 0.0, 0.0, 0.0, 0.0, 0.0, 0.0, 0.0, 0.0, 0.0, 1.7151624507093663E9, 0.0, 2024-05-08 13:00:50.709
231.0, 13830.45480614362, 0.0, 0.0, 0.0, 0.0, 0.0, 0.0, 0.0, 0.004, -0.046, 0.994, 192.0, 0.0, 0.0, 0.0, 0.0, 0.0, 0.0, 0.0, 0.0, 0.0, 1.71516245070938E9, 0.0, 2024-05-08 13:00:50.709
232.0, 13708.391929673187, 0.0, 0.0, 0.0, 0.0, 0.0, 0.0, 0.0, 0.004, -0.046, 0.994, 192.0, 0.0, 0.0, 0.0, 0.0, 0.0, 0.0, 0.0, 0.0, 0.0, 1.7151624507093935E9, 0.0, 2024-05-08 13:00:50.709
233.0, 13973.10363925739, 0.0, 0.0, 0.0, 0.0, 0.0, 0.0, 0.0, 0.004, -0.046, 0.994, 192.0, 0.0, 0.0, 0.0, 0.0, 0.0, 0.0, 0.0, 0.0, 0.0, 1.7151624507094073E9, 0.0, 2024-05-08 13:00:50.709
234.0, 14031.911078919302, 0.0, 0.0, 0.0, 0.0, 0.0, 0.0, 0.0, 0.004, -0.046, 0.994, 192.0, 0.0, 0.0, 0.0, 0.0, 0.0, 0.0, 0.0, 0.0, 0.0, 1.7151624507094207E9, 0.0, 2024-05-08 13:00:50.709
235.0, 13493.591665457687, 0.0, 0.0, 0.0, 0.0, 0.0, 0.0, 0.0, 0.004, -0.046, 0.994, 192.0, 0.0, 0.0, 0.0, 0.0, 0.0, 0.0, 0.0, 0.0, 0.0, 1.715162450709442E9, 0.0, 2024-05-08 13:00:50.709
236.0, 12807.862497313321, 0.0, 0.0, 0.0, 0.0, 0.0, 0.0, 0.0, 0.004, -0.046, 0.994, 192.0, 0.0, 0.0, 0.0, 0.0, 0.0, 0.0, 0.0, 0.0, 0.0, 1.7151624507094579E9, 0.0, 2024-05-08 13:00:50.709
237.0, 12544.603651118714, 0.0, 0.0, 0.0, 0.0, 0.0, 0.0, 0.0, 0.002, -0.048, 0.992, 192.0, 0.0, 16.0, 254.0, 128.0, 31.0, 0.0, 0.0, 0.0, 0.0, 1.7151624507094717E9, 0.0, 2024-05-08 13:00:50.709
238.0, 12669.751068323978, 0.0, 0.0, 0.0, 0.0, 0.0, 0.0, 0.0, 0.002, -0.048, 0.992, 192.0, 0.0, 0.0, 0.0, 0.0, 0.0, 0.0, 0.0, 0.0, 0.0, 1.7151624507094858E9, 0.0, 2024-05-08 13:00:50.709
239.0, 12567.625947907682, 0.0, 0.0, 0.0, 0.0, 0.0, 0.0, 0.0, 0.002, -0.048, 0.992, 192.0, 0.0, 0.0, 0.0, 0.0, 0.0, 0.0, 0.0, 0.0, 0.0, 1.7151624507094996E9, 0.0, 2024-05-08 13:00:50.709
240.0, 11838.087360630914, 0.0, 0.0, 0.0, 0.0, 0.0, 0.0, 0.0, 0.002, -0.048, 0.992, 192.0, 0.0, 0.0, 0.0, 0.0, 0.0, 0.0, 0.0, 0.0, 0.0, 1.7151624507095132E9, 0.0, 2024-05-08 13:00:50.709
241.0, 10938.429646304805, 0.0, 0.0, 0.0, 0.0, 0.0, 0.0, 0.0, 0.002, -0.048, 0.992, 192.0, 0.0, 0.0, 0.0, 0.0, 0.0, 0.0, 0.0, 0.0, 0.0, 1.71516245118688E9, 0.0, 2024-05-08 13:00:51.186
242.0, 10451.139265434655, 0.0, 0.0, 0.0, 0.0, 0.0, 0.0, 0.0, 0.002, -0.048, 0.992, 192.0, 0.0, 0.0, 0.0, 0.0, 0.0, 0.0, 0.0, 0.0, 0.0, 1.715162451186981E9, 0.0, 2024-05-08 13:00:51.186
243.0, 10446.043067698845, 0.0, 0.0, 0.0, 0.0, 0.0, 0.0, 0.0, 0.002, -0.048, 0.992, 192.0, 0.0, 0.0, 0.0, 0.0, 0.0, 0.0, 0.0, 0.0, 0.0, 1.7151624511870224E9, 0.0, 2024-05-08 13:00:51.187
244.0, 10288.999711155857, 0.0, 0.0, 0.0, 0.0, 0.0, 0.0, 0.0, 0.002, -0.048, 0.992, 192.0, 0.0, 0.0, 0.0, 0.0, 0.0, 0.0, 0.0, 0.0, 0.0, 1.715162451187046E9, 0.0, 2024-05-08 13:00:51.187
245.0, 9599.694263898644, 0.0, 0.0, 0.0, 0.0, 0.0, 0.0, 0.0, 0.002, -0.048, 0.992, 192.0, 0.0, 0.0, 0.0, 0.0, 0.0, 0.0, 0.0, 0.0, 0.0, 1.7151624511870666E9, 0.0, 2024-05-08 13:00:51.187
246.0, 8832.649449425871, 0.0, 0.0, 0.0, 0.0, 0.0, 0.0, 0.0, 0.002, -0.048, 0.992, 192.0, 0.0, 0.0, 0.0, 0.0, 0.0, 0.0, 0.0, 0.0, 0.0, 1.7151624511870968E9, 0.0, 2024-05-08 13:00:51.187
247.0, 8557.745344370049, 0.0, 0.0, 0.0, 0.0, 0.0, 0.0, 0.0, 0.002, -0.048, 0.992, 192.0, 0.0, 0.0, 254.0, 128.0, 30.0, 240.0, 0.0, 0.0, 0.0, 1.7151624511871169E9, 0.0, 2024-05-08 13:00:51.187
248.0, 8730.993715643133, 0.0, 0.0, 0.0, 0.0, 0.0, 0.0, 0.0, 0.002, -0.048, 0.992, 192.0, 0.0, 0.0, 0.0, 0.0, 0.0, 0.0, 0.0, 0.0, 0.0, 1.7151624511871376E9, 0.0, 2024-05-08 13:00:51.187
249.0, 8704.752767652604, 0.0, 0.0, 0.0, 0.0, 0.0, 0.0, 0.0, 0.002, -0.048, 0.992, 192.0, 0.0, 0.0, 0.0, 0.0, 0.0, 0.0, 0.0, 0.0, 0.0, 1.7151624511871593E9, 0.0, 2024-05-08 13:00:51.187
250.0, 8048.438495211422, 0.0, 0.0, 0.0, 0.0, 0.0, 0.0, 0.0, 0.002, -0.048, 0.992, 192.0, 0.0, 0.0, 0.0, 0.0, 0.0, 0.0, 0.0, 0.0, 0.0, 1.715162451187179E9, 0.0, 2024-05-08 13:00:51.187
251.0, 7248.178988478064, 0.0, 0.0, 0.0, 0.0, 0.0, 0.0, 0.0, 0.002, -0.048, 0.992, 192.0, 0.0, 0.0, 0.0, 0.0, 0.0, 0.0, 0.0, 0.0, 0.0, 1.7151624511871986E9, 0.0, 2024-05-08 13:00:51.187
252.0, 6959.640319304504, 0.0, 0.0, 0.0, 0.0, 0.0, 0.0, 0.0, 0.002, -0.048, 0.992, 192.0, 0.0, 0.0, 0.0, 0.0, 0.0, 0.0, 0.0, 0.0, 0.0, 1.7151624511872177E9, 0.0, 2024-05-08 13:00:51.187
253.0, 7136.643783646082, 0.0, 0.0, 0.0, 0.0, 0.0, 0.0, 0.0, 0.002, -0.048, 0.992, 192.0, 0.0, 0.0, 0.0, 0.0, 0.0, 0.0, 0.0, 0.0, 0.0, 1.715162451187348E9, 0.0, 2024-05-08 13:00:51.187
254.0, 7113.755597323847, 0.0, 0.0, 0.0, 0.0, 0.0, 0.0, 0.0, 0.002, -0.048, 0.992, 192.0, 0.0, 0.0, 0.0, 0.0, 0.0, 0.0, 0.0, 0.0, 0.0, 1.7151624511873672E9, 0.0, 2024-05-08 13:00:51.187
255.0, 6448.99236547856, 0.0, 0.0, 0.0, 0.0, 0.0, 0.0, 0.0, 0.002, -0.048, 0.992, 192.0, 0.0, 0.0, 0.0, 0.0, 0.0, 0.0, 0.0, 0.0, 0.0, 1.7151624511873858E9, 0.0, 2024-05-08 13:00:51.187
0.0, 5650.208073879251, 0.0, 0.0, 0.0, 0.0, 0.0, 0.0, 0.0, 0.002, -0.048, 0.992, 192.0, 0.0, 0.0, 0.0, 0.0, 0.0, 0.0, 0.0, 0.0, 0.0, 1.7151624511874063E9, 0.0, 2024-05-08 13:00:51.187
1.0, 5425.9530217591555, 0.0, 0.0, 0.0, 0.0, 0.0, 0.0, 0.0, 0.002, -0.048, 0.992, 192.0, 0.0, 0.0, 254.0, 96.0, 31.0, 16.0, 0.0, 0.0, 0.0, 1.7151624511874268E9, 0.0, 2024-05-08 13:00:51.187
2.0, 5708.568478652058, 0.0, 0.0, 0.0, 0.0, 0.0, 0.0, 0.0, 0.002, -0.048, 0.992, 192.0, 0.0, 0.0, 0.0, 0.0, 0.0, 0.0, 0.0, 0.0, 0.0, 1.7151624511874468E9, 0.0, 2024-05-08 13:00:51.187
3.0, 5836.10753251404, 0.0, 0.0, 0.0, 0.0, 0.0, 0.0, 0.0, 0.002, -0.048, 0.992, 192.0, 0.0, 0.0, 0.0, 0.0, 0.0, 0.0, 0.0, 0.0, 0.0, 1.715162451187466E9, 0.0, 2024-05-08 13:00:51.187
4.0, 5337.238948016042, 0.0, 0.0, 0.0, 0.0, 0.0, 0.0, 0.0, 0.002, -0.048, 0.992, 192.0, 0.0, 0.0, 0.0, 0.0, 0.0, 0.0, 0.0, 0.0, 0.0, 1.7151624511874864E9, 0.0, 2024-05-08 13:00:51.187
5.0, 4698.761367650195, 0.0, 0.0, 0.0, 0.0, 0.0, 0.0, 0.0, 0.002, -0.048, 0.992, 192.0, 0.0, 0.0, 0.0, 0.0, 0.0, 0.0, 0.0, 0.0, 0.0, 1.715162451187505E9, 0.0, 2024-05-08 13:00:51.187
6.0, 4624.48652082521, 0.0, 0.0, 0.0, 0.0, 0.0, 0.0, 0.0, 0.002, -0.048, 0.992, 192.0, 0.0, 0.0, 0.0, 0.0, 0.0, 0.0, 0.0, 0.0, 0.0, 1.715162451187525E9, 0.0, 2024-05-08 13:00:51.187
7.0, 5078.33869199022, 0.0, 0.0, 0.0, 0.0, 0.0, 0.0, 0.0, 0.002, -0.048, 0.992, 192.0, 0.0, 0.0, 0.0, 0.0, 0.0, 0.0, 0.0, 0.0, 0.0, 1.7151624511875424E9, 0.0, 2024-05-08 13:00:51.187
8.0, 5381.070718892899, 0.0, 0.0, 0.0, 0.0, 0.0, 0.0, 0.0, 0.002, -0.048, 0.992, 192.0, 0.0, 0.0, 0.0, 0.0, 0.0, 0.0, 0.0, 0.0, 0.0, 1.715162451187562E9, 0.0, 2024-05-08 13:00:51.187
9.0, 5015.8208627487265, 0.0, 0.0, 0.0, 0.0, 0.0, 0.0, 0.0, 0.002, -0.048, 0.992, 192.0, 0.0, 0.0, 0.0, 0.0, 0.0, 0.0, 0.0, 0.0, 0.0, 1.71516245118758E9, 0.0, 2024-05-08 13:00:51.187
10.0, 4506.469310101189, 0.0, 0.0, 0.0, 0.0, 0.0, 0.0, 0.0, 0.002, -0.048, 0.992, 192.0, 0.0, 0.0, 0.0, 0.0, 0.0, 0.0, 0.0, 0.0, 0.0, 1.7151624511875985E9, 0.0, 2024-05-08 13:00:51.187
11.0, 4569.791802143073, 0.0, 0.0, 0.0, 0.0, 0.0, 0.0, 0.0, 0.002, -0.048, 0.992, 192.0, 0.0, 0.0, 254.0, 48.0, 31.0, 16.0, 0.0, 0.0, 0.0, 1.7151624511876168E9, 0.0, 2024-05-08 13:00:51.187
12.0, 5188.97982704399, 0.0, 0.0, 0.0, 0.0, 0.0, 0.0, 0.0, 0.002, -0.048, 0.992, 192.0, 0.0, 0.0, 0.0, 0.0, 0.0, 0.0, 0.0, 0.0, 0.0, 1.715162451187638E9, 0.0, 2024-05-08 13:00:51.187
13.0, 5602.978837845188, 0.0, 0.0, 0.0, 0.0, 0.0, 0.0, 0.0, 0.002, -0.048, 0.992, 192.0, 0.0, 0.0, 0.0, 0.0, 0.0, 0.0, 0.0, 0.0, 0.0, 1.7151624511876583E9, 0.0, 2024-05-08 13:00:51.187
14.0, 5295.150613206699, 0.0, 0.0, 0.0, 0.0, 0.0, 0.0, 0.0, 0.002, -0.048, 0.992, 192.0, 0.0, 0.0, 0.0, 0.0, 0.0, 0.0, 0.0, 0.0, 0.0, 1.7151624511876955E9, 0.0, 2024-05-08 13:00:51.187
15.0, 4828.960279102359, 0.0, 0.0, 0.0, 0.0, 0.0, 0.0, 0.0, 0.002, -0.048, 0.992, 192.0, 0.0, 0.0, 0.0, 0.0, 0.0, 0.0, 0.0, 0.0, 0.0, 1.7151624511877153E9, 0.0, 2024-05-08 13:00:51.187
16.0, 4969.88802789307, 0.0, 0.0, 0.0, 0.0, 0.0, 0.0, 0.0, 0.002, -0.048, 0.992, 192.0, 0.0, 0.0, 0.0, 0.0, 0.0, 0.0, 0.0, 0.0, 0.0, 1.7151624511877332E9, 0.0, 2024-05-08 13:00:51.187
17.0, 5726.4275224718485, 0.0, 0.0, 0.0, 0.0, 0.0, 0.0, 0.0, 0.002, -0.048, 0.992, 192.0, 0.0, 0.0, 0.0, 0.0, 0.0, 0.0, 0.0, 0.0, 0.0, 1.7151624511877518E9, 0.0, 2024-05-08 13:00:51.187
18.0, 6326.2142331855575, 0.0, 0.0, 0.0, 0.0, 0.0, 0.0, 0.0, 0.002, -0.048, 0.992, 192.0, 0.0, 0.0, 0.0, 0.0, 0.0, 0.0, 0.0, 0.0, 0.0, 1.7151624511877704E9, 0.0, 2024-05-08 13:00:51.187
19.0, 6223.105636013226, 0.0, 0.0, 0.0, 0.0, 0.0, 0.0, 0.0, 0.002, -0.048, 0.992, 192.0, 0.0, 0.0, 0.0, 0.0, 0.0, 0.0, 0.0, 0.0, 0.0, 1.7151624511877892E9, 0.0, 2024-05-08 13:00:51.187
20.0, 5988.121746554583, 0.0, 0.0, 0.0, 0.0, 0.0, 0.0, 0.0, 0.002, -0.048, 0.992, 192.0, 0.0, 0.0, 0.0, 0.0, 0.0, 0.0, 0.0, 0.0, 0.0, 1.7151624511878095E9, 0.0, 2024-05-08 13:00:51.187
21.0, 6414.034237150459, 0.0, 0.0, 0.0, 0.0, 0.0, 0.0, 0.0, -0.002, -0.058, 0.994, 192.0, 255.0, 240.0, 254.0, 48.0, 31.0, 16.0, 0.0, 0.0, 0.0, 1.7151624511878276E9, 0.0, 2024-05-08 13:00:51.187
22.0, 7498.004436255031, 0.0, 0.0, 0.0, 0.0, 0.0, 0.0, 0.0, -0.002, -0.058, 0.994, 192.0, 0.0, 0.0, 0.0, 0.0, 0.0, 0.0, 0.0, 0.0, 0.0, 1.715162451187847E9, 0.0, 2024-05-08 13:00:51.187
23.0, 8407.13929023019, 0.0, 0.0, 0.0, 0.0, 0.0, 0.0, 0.0, -0.002, -0.058, 0.994, 192.0, 0.0, 0.0, 0.0, 0.0, 0.0, 0.0, 0.0, 0.0, 0.0, 1.715162451187866E9, 0.0, 2024-05-08 13:00:51.187
24.0, 8535.125378981278, 0.0, 0.0, 0.0, 0.0, 0.0, 0.0, 0.0, -0.002, -0.058, 0.994, 192.0, 0.0, 0.0, 0.0, 0.0, 0.0, 0.0, 0.0, 0.0, 0.0, 1.7151624511878867E9, 0.0, 2024-05-08 13:00:51.187
25.0, 8455.53081697593, 0.0, 0.0, 0.0, 0.0, 0.0, 0.0, 0.0, -0.002, -0.058, 0.994, 192.0, 0.0, 0.0, 0.0, 0.0, 0.0, 0.0, 0.0, 0.0, 0.0, 1.715162451187905E9, 0.0, 2024-05-08 13:00:51.187
26.0, 9027.467254098327, 0.0, 0.0, 0.0, 0.0, 0.0, 0.0, 0.0, -0.002, -0.058, 0.994, 192.0, 0.0, 0.0, 0.0, 0.0, 0.0, 0.0, 0.0, 0.0, 0.0, 1.715162451187925E9, 0.0, 2024-05-08 13:00:51.187
27.0, 10206.767643304784, 0.0, 0.0, 0.0, 0.0, 0.0, 0.0, 0.0, -0.002, -0.058, 0.994, 192.0, 0.0, 0.0, 0.0, 0.0, 0.0, 0.0, 0.0, 0.0, 0.0, 1.7151624511879437E9, 0.0, 2024-05-08 13:00:51.187
28.0, 11131.973401543308, 0.0, 0.0, 0.0, 0.0, 0.0, 0.0, 0.0, -0.002, -0.058, 0.994, 192.0, 0.0, 0.0, 0.0, 0.0, 0.0, 0.0, 0.0, 0.0, 0.0, 1.715162451187963E9, 0.0, 2024-05-08 13:00:51.187
29.0, 11200.101518643085, 0.0, 0.0, 0.0, 0.0, 0.0, 0.0, 0.0, -0.002, -0.058, 0.994, 192.0, 0.0, 0.0, 0.0, 0.0, 0.0, 0.0, 0.0, 0.0, 0.0, 1.7151624511879814E9, 0.0, 2024-05-08 13:00:51.187
30.0, 11007.720054116257, 0.0, 0.0, 0.0, 0.0, 0.0, 0.0, 0.0, -0.002, -0.058, 0.994, 192.0, 0.0, 0.0, 0.0, 0.0, 0.0, 0.0, 0.0, 0.0, 0.0, 1.715162451188001E9, 0.0, 2024-05-08 13:00:51.188
31.0, 11429.408065010079, 0.0, 0.0, 0.0, 0.0, 0.0, 0.0, 0.0, -0.002, -0.054, 0.994, 192.0, 255.0, 240.0, 254.0, 80.0, 31.0, 16.0, 0.0, 0.0, 0.0, 1.7151624511880193E9, 0.0, 2024-05-08 13:00:51.188
32.0, 12457.27538553183, 0.0, 0.0, 0.0, 0.0, 0.0, 0.0, 0.0, -0.002, -0.054, 0.994, 192.0, 0.0, 0.0, 0.0, 0.0, 0.0, 0.0, 0.0, 0.0, 0.0, 1.715162451188055E9, 0.0, 2024-05-08 13:00:51.188
33.0, 13205.99176955125, 0.0, 0.0, 0.0, 0.0, 0.0, 0.0, 0.0, -0.002, -0.054, 0.994, 192.0, 0.0, 0.0, 0.0, 0.0, 0.0, 0.0, 0.0, 0.0, 0.0, 1.715162451188077E9, 0.0, 2024-05-08 13:00:51.188
34.0, 13077.849218588975, 0.0, 0.0, 0.0, 0.0, 0.0, 0.0, 0.0, -0.002, -0.054, 0.994, 192.0, 0.0, 0.0, 0.0, 0.0, 0.0, 0.0, 0.0, 0.0, 0.0, 1.7151624511881046E9, 0.0, 2024-05-08 13:00:51.188
35.0, 12728.782025430444, 0.0, 0.0, 0.0, 0.0, 0.0, 0.0, 0.0, -0.002, -0.054, 0.994, 192.0, 0.0, 0.0, 0.0, 0.0, 0.0, 0.0, 0.0, 0.0, 0.0, 1.7151624511881232E9, 0.0, 2024-05-08 13:00:51.188
36.0, 13052.05530548755, 0.0, 0.0, 0.0, 0.0, 0.0, 0.0, 0.0, -0.002, -0.054, 0.994, 192.0, 0.0, 0.0, 0.0, 0.0, 0.0, 0.0, 0.0, 0.0, 0.0, 1.7151624511881416E9, 0.0, 2024-05-08 13:00:51.188
37.0, 14013.068558343479, 0.0, 0.0, 0.0, 0.0, 0.0, 0.0, 0.0, -0.002, -0.054, 0.994, 192.0, 0.0, 0.0, 0.0, 0.0, 0.0, 0.0, 0.0, 0.0, 0.0, 1.71516245118816E9, 0.0, 2024-05-08 13:00:51.188
38.0, 14751.659602124644, 0.0, 0.0, 0.0, 0.0, 0.0, 0.0, 0.0, -0.002, -0.054, 0.994, 192.0, 0.0, 0.0, 0.0, 0.0, 0.0, 0.0, 0.0, 0.0, 0.0, 1.7151624511881783E9, 0.0, 2024-05-08 13:00:51.188
39.0, 14607.110870732175, 0.0, 0.0, 0.0, 0.0, 0.0, 0.0, 0.0, -0.002, -0.054, 0.994, 192.0, 0.0, 0.0, 0.0, 0.0, 0.0, 0.0, 0.0, 0.0, 0.0, 1.7151624511881986E9, 0.0, 2024-05-08 13:00:51.188
40.0, 14210.166240950375, 0.0, 0.0, 0.0, 0.0, 0.0, 0.0, 0.0, -0.002, -0.054, 0.994, 192.0, 0.0, 0.0, 0.0, 0.0, 0.0, 0.0, 0.0, 0.0, 0.0, 1.7151624511882167E9, 0.0, 2024-05-08 13:00:51.188
41.0, 14454.157883424508, 0.0, 0.0, 0.0, 0.0, 0.0, 0.0, 0.0, -0.002, -0.054, 0.994, 192.0, 0.0, 0.0, 254.0, 96.0, 31.0, 16.0, 0.0, 0.0, 0.0, 1.715162451188235E9, 0.0, 2024-05-08 13:00:51.188
42.0, 15345.813673235616, 0.0, 0.0, 0.0, 0.0, 0.0, 0.0, 0.0, -0.002, -0.054, 0.994, 192.0, 0.0, 0.0, 0.0, 0.0, 0.0, 0.0, 0.0, 0.0, 0.0, 1.7151624511882553E9, 0.0, 2024-05-08 13:00:51.188
43.0, 16058.454341704171, 0.0, 0.0, 0.0, 0.0, 0.0, 0.0, 0.0, -0.002, -0.054, 0.994, 192.0, 0.0, 0.0, 0.0, 0.0, 0.0, 0.0, 0.0, 0.0, 0.0, 1.7151624511882737E9, 0.0, 2024-05-08 13:00:51.188
44.0, 15879.774496528447, 0.0, 0.0, 0.0, 0.0, 0.0, 0.0, 0.0, -0.002, -0.054, 0.994, 192.0, 0.0, 0.0, 0.0, 0.0, 0.0, 0.0, 0.0, 0.0, 0.0, 1.7151624511882915E9, 0.0, 2024-05-08 13:00:51.188
45.0, 15401.938903562894, 0.0, 0.0, 0.0, 0.0, 0.0, 0.0, 0.0, -0.002, -0.054, 0.994, 192.0, 0.0, 0.0, 0.0, 0.0, 0.0, 0.0, 0.0, 0.0, 0.0, 1.7151624511883097E9, 0.0, 2024-05-08 13:00:51.188
46.0, 15595.572065779217, 0.0, 0.0, 0.0, 0.0, 0.0, 0.0, 0.0, -0.002, -0.054, 0.994, 192.0, 0.0, 0.0, 0.0, 0.0, 0.0, 0.0, 0.0, 0.0, 0.0, 1.7151624511883297E9, 0.0, 2024-05-08 13:00:51.188
47.0, 16511.65831227998, 0.0, 0.0, 0.0, 0.0, 0.0, 0.0, 0.0, -0.002, -0.054, 0.994, 192.0, 0.0, 0.0, 0.0, 0.0, 0.0, 0.0, 0.0, 0.0, 0.0, 1.7151624511883478E9, 0.0, 2024-05-08 13:00:51.188
48.0, 17150.895851957306, 0.0, 0.0, 0.0, 0.0, 0.0, 0.0, 0.0, -0.002, -0.054, 0.994, 192.0, 0.0, 0.0, 0.0, 0.0, 0.0, 0.0, 0.0, 0.0, 0.0, 1.7151624511883657E9, 0.0, 2024-05-08 13:00:51.188
49.0, 16834.685723148075, 0.0, 0.0, 0.0, 0.0, 0.0, 0.0, 0.0, -0.002, -0.054, 0.994, 192.0, 0.0, 0.0, 0.0, 0.0, 0.0, 0.0, 0.0, 0.0, 0.0, 1.7151624511883972E9, 0.0, 2024-05-08 13:00:51.188
50.0, 16217.218782570219, 0.0, 0.0, 0.0, 0.0, 0.0, 0.0, 0.0, -0.002, -0.054, 0.994, 192.0, 0.0, 0.0, 0.0, 0.0, 0.0, 0.0, 0.0, 0.0, 0.0, 1.7151624511884165E9, 0.0, 2024-05-08 13:00:51.188
51.0, 16295.718109097257, 0.0, 0.0, 0.0, 0.0, 0.0, 0.0, 0.0, -0.002, -0.054, 0.99, 192.0, 255.0, 240.0, 254.0, 80.0, 30.0, 240.0, 0.0, 0.0, 0.0, 1.7151624511884344E9, 0.0, 2024-05-08 13:00:51.188
52.0, 17092.893075095784, 0.0, 0.0, 0.0, 0.0, 0.0, 0.0, 0.0, -0.002, -0.054, 0.99, 192.0, 0.0, 0.0, 0.0, 0.0, 0.0, 0.0, 0.0, 0.0, 0.0, 1.7151624511884563E9, 0.0, 2024-05-08 13:00:51.188
53.0, 17636.375741526575, 0.0, 0.0, 0.0, 0.0, 0.0, 0.0, 0.0, -0.002, -0.054, 0.99, 192.0, 0.0, 0.0, 0.0, 0.0, 0.0, 0.0, 0.0, 0.0, 0.0, 1.7151624511884747E9, 0.0, 2024-05-08 13:00:51.188
54.0, 17234.55843145352, 0.0, 0.0, 0.0, 0.0, 0.0, 0.0, 0.0, -0.002, -0.054, 0.99, 192.0, 0.0, 0.0, 0.0, 0.0, 0.0, 0.0, 0.0, 0.0, 0.0, 1.7151624511884928E9, 0.0, 2024-05-08 13:00:51.188
55.0, 16525.337579886625, 0.0, 0.0, 0.0, 0.0, 0.0, 0.0, 0.0, -0.002, -0.054, 0.99, 192.0, 0.0, 0.0, 0.0, 0.0, 0.0, 0.0, 0.0, 0.0, 0.0, 1.715162451188511E9, 0.0, 2024-05-08 13:00:51.188
56.0, 16512.820602991655, 0.0, 0.0, 0.0, 0.0, 0.0, 0.0, 0.0, -0.002, -0.054, 0.99, 192.0, 0.0, 0.0, 0.0, 0.0, 0.0, 0.0, 0.0, 0.0, 0.0, 1.7151624511885304E9, 0.0, 2024-05-08 13:00:51.188
57.0, 17198.527419391565, 0.0, 0.0, 0.0, 0.0, 0.0, 0.0, 0.0, -0.002, -0.054, 0.99, 192.0, 0.0, 0.0, 0.0, 0.0, 0.0, 0.0, 0.0, 0.0, 0.0, 1.7151624511885486E9, 0.0, 2024-05-08 13:00:51.188
58.0, 17337.801139092582, 0.0, 0.0, 0.0, 0.0, 0.0, 0.0, 0.0, -0.002, -0.054, 0.99, 192.0, 0.0, 0.0, 0.0, 0.0, 0.0, 0.0, 0.0, 0.0, 0.0, 1.7151624511885667E9, 0.0, 2024-05-08 13:00:51.188
59.0, 16661.705572808456, 0.0, 0.0, 0.0, 0.0, 0.0, 0.0, 0.0, -0.002, -0.054, 0.99, 192.0, 0.0, 0.0, 0.0, 0.0, 0.0, 0.0, 0.0, 0.0, 0.0, 1.7151624511885865E9, 0.0, 2024-05-08 13:00:51.188
60.0, 15800.69402464557, 0.0, 0.0, 0.0, 0.0, 0.0, 0.0, 0.0, -0.002, -0.054, 0.99, 192.0, 0.0, 0.0, 0.0, 0.0, 0.0, 0.0, 0.0, 0.0, 0.0, 1.7151624511886048E9, 0.0, 2024-05-08 13:00:51.188
61.0, 15654.535967652319, 0.0, 0.0, 0.0, 0.0, 0.0, 0.0, 0.0, 0.002, -0.048, 0.99, 192.0, 0.0, 16.0, 254.0, 128.0, 30.0, 240.0, 0.0, 0.0, 0.0, 1.7151624511886237E9, 0.0, 2024-05-08 13:00:51.188
62.0, 16265.945585482788, 0.0, 0.0, 0.0, 0.0, 0.0, 0.0, 0.0, 0.002, -0.048, 0.99, 192.0, 0.0, 0.0, 0.0, 0.0, 0.0, 0.0, 0.0, 0.0, 0.0, 1.7151624511886427E9, 0.0, 2024-05-08 13:00:51.188
63.0, 16649.970906969418, 0.0, 0.0, 0.0, 0.0, 0.0, 0.0, 0.0, 0.002, -0.048, 0.99, 192.0, 0.0, 0.0, 0.0, 0.0, 0.0, 0.0, 0.0, 0.0, 0.0, 1.715162451188661E9, 0.0, 2024-05-08 13:00:51.188
64.0, 16084.672937950247, 0.0, 0.0, 0.0, 0.0, 0.0, 0.0, 0.0, 0.002, -0.048, 0.99, 192.0, 0.0, 0.0, 0.0, 0.0, 0.0, 0.0, 0.0, 0.0, 0.0, 1.7151624511886804E9, 0.0, 2024-05-08 13:00:51.188
65.0, 15220.10746241897, 0.0, 0.0, 0.0, 0.0, 0.0, 0.0, 0.0, 0.002, -0.048, 0.99, 192.0, 0.0, 0.0, 0.0, 0.0, 0.0, 0.0, 0.0, 0.0, 0.0, 1.715162451188701E9, 0.0, 2024-05-08 13:00:51.188
66.0, 15109.399272131834, 0.0, 0.0, 0.0, 0.0, 0.0, 0.0, 0.0, 0.002, -0.048, 0.99, 192.0, 0.0, 0.0, 0.0, 0.0, 0.0, 0.0, 0.0, 0.0, 0.0, 1.7151624511887188E9, 0.0, 2024-05-08 13:00:51.188
67.0, 15796.402489710152, 0.0, 0.0, 0.0, 0.0, 0.0, 0.0, 0.0, 0.002, -0.048, 0.99, 192.0, 0.0, 0.0, 0.0, 0.0, 0.0, 0.0, 0.0, 0.0, 0.0, 1.7151624511887505E9, 0.0, 2024-05-08 13:00:51.188
68.0, 16236.955372924254, 0.0, 0.0, 0.0, 0.0, 0.0, 0.0, 0.0, 0.002, -0.048, 0.99, 192.0, 0.0, 0.0, 0.0, 0.0, 0.0, 0.0, 0.0, 0.0, 0.0, 1.7151624511887686E9, 0.0, 2024-05-08 13:00:51.188
69.0, 15691.326939025754, 0.0, 0.0, 0.0, 0.0, 0.0, 0.0, 0.0, 0.002, -0.048, 0.99, 192.0, 0.0, 0.0, 0.0, 0.0, 0.0, 0.0, 0.0, 0.0, 0.0, 1.7151624511887867E9, 0.0, 2024-05-08 13:00:51.188
70.0, 14860.758466810998, 0.0, 0.0, 0.0, 0.0, 0.0, 0.0, 0.0, 0.002, -0.048, 0.99, 192.0, 0.0, 0.0, 0.0, 0.0, 0.0, 0.0, 0.0, 0.0, 0.0, 1.715162451188805E9, 0.0, 2024-05-08 13:00:51.188
71.0, 14819.072463401852, 0.0, 0.0, 0.0, 0.0, 0.0, 0.0, 0.0, 0.002, -0.048, 0.99, 192.0, 0.0, 0.0, 254.0, 112.0, 31.0, 0.0, 0.0, 0.0, 0.0, 1.7151624511888244E9, 0.0, 2024-05-08 13:00:51.188
72.0, 15641.773121568338, 0.0, 0.0, 0.0, 0.0, 0.0, 0.0, 0.0, 0.002, -0.048, 0.99, 192.0, 0.0, 0.0, 0.0, 0.0, 0.0, 0.0, 0.0, 0.0, 0.0, 1.715162451188846E9, 0.0, 2024-05-08 13:00:51.188
73.0, 16270.594748329491, 0.0, 0.0, 0.0, 0.0, 0.0, 0.0, 0.0, 0.002, -0.048, 0.99, 192.0, 0.0, 0.0, 0.0, 0.0, 0.0, 0.0, 0.0, 0.0, 0.0, 1.7151624511888657E9, 0.0, 2024-05-08 13:00:51.188
74.0, 15943.700485670626, 0.0, 0.0, 0.0, 0.0, 0.0, 0.0, 0.0, 0.002, -0.048, 0.99, 192.0, 0.0, 0.0, 0.0, 0.0, 0.0, 0.0, 0.0, 0.0, 0.0, 1.7151624511888852E9, 0.0, 2024-05-08 13:00:51.188
75.0, 15312.867201908495, 0.0, 0.0, 0.0, 0.0, 0.0, 0.0, 0.0, 0.002, -0.048, 0.99, 192.0, 0.0, 0.0, 0.0, 0.0, 0.0, 0.0, 0.0, 0.0, 0.0, 1.7151624511889052E9, 0.0, 2024-05-08 13:00:51.188
76.0, 15462.690944992417, 0.0, 0.0, 0.0, 0.0, 0.0, 0.0, 0.0, 0.002, -0.048, 0.99, 192.0, 0.0, 0.0, 0.0, 0.0, 0.0, 0.0, 0.0, 0.0, 0.0, 1.7151624511889255E9, 0.0, 2024-05-08 13:00:51.188
77.0, 16435.617677643022, 0.0, 0.0, 0.0, 0.0, 0.0, 0.0, 0.0, 0.002, -0.048, 0.99, 192.0, 0.0, 0.0, 0.0, 0.0, 0.0, 0.0, 0.0, 0.0, 0.0, 1.715162451188946E9, 0.0, 2024-05-08 13:00:51.188
78.0, 17169.62661381085, 0.0, 0.0, 0.0, 0.0, 0.0, 0.0, 0.0, 0.002, -0.048, 0.99, 192.0, 0.0, 0.0, 0.0, 0.0, 0.0, 0.0, 0.0, 0.0, 0.0, 1.7151624511889665E9, 0.0, 2024-05-08 13:00:51.188
79.0, 16919.26472416696, 0.0, 0.0, 0.0, 0.0, 0.0, 0.0, 0.0, 0.002, -0.048, 0.99, 192.0, 0.0, 0.0, 0.0, 0.0, 0.0, 0.0, 0.0, 0.0, 0.0, 1.7151624511889873E9, 0.0, 2024-05-08 13:00:51.188
80.0, 16319.99210357572, 0.0, 0.0, 0.0, 0.0, 0.0, 0.0, 0.0, 0.002, -0.048, 0.99, 192.0, 0.0, 0.0, 0.0, 0.0, 0.0, 0.0, 0.0, 0.0, 0.0, 1.7151624511890051E9, 0.0, 2024-05-08 13:00:51.189
81.0, 16467.31245128065, 0.0, 0.0, 0.0, 0.0, 0.0, 0.0, 0.0, 0.002, -0.048, 0.99, 192.0, 0.0, 0.0, 254.0, 96.0, 31.0, 16.0, 0.0, 0.0, 0.0, 1.7151624511890235E9, 0.0, 2024-05-08 13:00:51.189
82.0, 17461.830969075083, 0.0, 0.0, 0.0, 0.0, 0.0, 0.0, 0.0, 0.002, -0.048, 0.99, 192.0, 0.0, 0.0, 0.0, 0.0, 0.0, 0.0, 0.0, 0.0, 0.0, 1.7151624511890423E9, 0.0, 2024-05-08 13:00:51.189
83.0, 18160.635907725802, 0.0, 0.0, 0.0, 0.0, 0.0, 0.0, 0.0, 0.002, -0.048, 0.99, 192.0, 0.0, 0.0, 0.0, 0.0, 0.0, 0.0, 0.0, 0.0, 0.0, 1.7151624511890607E9, 0.0, 2024-05-08 13:00:51.189
84.0, 17767.021687867844, 0.0, 0.0, 0.0, 0.0, 0.0, 0.0, 0.0, 0.002, -0.048, 0.99, 192.0, 0.0, 0.0, 0.0, 0.0, 0.0, 0.0, 0.0, 0.0, 0.0, 1.7151624511890943E9, 0.0, 2024-05-08 13:00:51.189
85.0, 16970.181998036147, 0.0, 0.0, 0.0, 0.0, 0.0, 0.0, 0.0, 0.002, -0.048, 0.99, 192.0, 0.0, 0.0, 0.0, 0.0, 0.0, 0.0, 0.0, 0.0, 0.0, 1.7151624511891515E9, 0.0, 2024-05-08 13:00:51.189
86.0, 16920.203497434082, 0.0, 0.0, 0.0, 0.0, 0.0, 0.0, 0.0, 0.002, -0.048, 0.99, 192.0, 0.0, 0.0, 0.0, 0.0, 0.0, 0.0, 0.0, 0.0, 0.0, 1.71516245118917E9, 0.0, 2024-05-08 13:00:51.189
87.0, 17725.738015858893, 0.0, 0.0, 0.0, 0.0, 0.0, 0.0, 0.0, 0.002, -0.048, 0.99, 192.0, 0.0, 0.0, 0.0, 0.0, 0.0, 0.0, 0.0, 0.0, 0.0, 1.7151624511891882E9, 0.0, 2024-05-08 13:00:51.189
88.0, 18287.102077853928, 0.0, 0.0, 0.0, 0.0, 0.0, 0.0, 0.0, 0.002, -0.048, 0.99, 192.0, 0.0, 0.0, 0.0, 0.0, 0.0, 0.0, 0.0, 0.0, 0.0, 1.7151624511892064E9, 0.0, 2024-05-08 13:00:51.189
89.0, 17853.25471797642, 0.0, 0.0, 0.0, 0.0, 0.0, 0.0, 0.0, 0.002, -0.048, 0.99, 192.0, 0.0, 0.0, 0.0, 0.0, 0.0, 0.0, 0.0, 0.0, 0.0, 1.7151624511892245E9, 0.0, 2024-05-08 13:00:51.189
90.0, 17111.735595671606, 0.0, 0.0, 0.0, 0.0, 0.0, 0.0, 0.0, 0.002, -0.048, 0.99, 192.0, 0.0, 0.0, 0.0, 0.0, 0.0, 0.0, 0.0, 0.0, 0.0, 1.7151624511892426E9, 0.0, 2024-05-08 13:00:51.189
91.0, 17207.35635845141, 0.0, 0.0, 0.0, 0.0, 0.0, 0.0, 0.0, 0.002, -0.048, 0.99, 192.0, 0.0, 0.0, 254.0, 112.0, 30.0, 208.0, 0.0, 0.0, 0.0, 1.7151624511892605E9, 0.0, 2024-05-08 13:00:51.189
92.0, 18192.576550552436, 0.0, 0.0, 0.0, 0.0, 0.0, 0.0, 0.0, 0.002, -0.048, 0.99, 192.0, 0.0, 0.0, 0.0, 0.0, 0.0, 0.0, 0.0, 0.0, 0.0, 1.7151624511892812E9, 0.0, 2024-05-08 13:00:51.189
93.0, 18884.69831761102, 0.0, 0.0, 0.0, 0.0, 0.0, 0.0, 0.0, 0.002, -0.048, 0.99, 192.0, 0.0, 0.0, 0.0, 0.0, 0.0, 0.0, 0.0, 0.0, 0.0, 1.7151624511893E9, 0.0, 2024-05-08 13:00:51.189
94.0, 18453.89079497943, 0.0, 0.0, 0.0, 0.0, 0.0, 0.0, 0.0, 0.002, -0.048, 0.99, 192.0, 0.0, 0.0, 0.0, 0.0, 0.0, 0.0, 0.0, 0.0, 0.0, 1.7151624511893177E9, 0.0, 2024-05-08 13:00:51.189
95.0, 17566.213615681365, 0.0, 0.0, 0.0, 0.0, 0.0, 0.0, 0.0, 0.002, -0.048, 0.99, 192.0, 0.0, 0.0, 0.0, 0.0, 0.0, 0.0, 0.0, 0.0, 0.0, 1.7151624511893363E9, 0.0, 2024-05-08 13:00:51.189
96.0, 17447.458797390318, 0.0, 0.0, 0.0, 0.0, 0.0, 0.0, 0.0, 0.002, -0.048, 0.99, 192.0, 0.0, 0.0, 0.0, 0.0, 0.0, 0.0, 0.0, 0.0, 0.0, 1.715162451189355E9, 0.0, 2024-05-08 13:00:51.189
97.0, 18245.952516311707, 0.0, 0.0, 0.0, 0.0, 0.0, 0.0, 0.0, 0.002, -0.048, 0.99, 192.0, 0.0, 0.0, 0.0, 0.0, 0.0, 0.0, 0.0, 0.0, 0.0, 1.7151624511893733E9, 0.0, 2024-05-08 13:00:51.189
98.0, 18773.207816267946, 0.0, 0.0, 0.0, 0.0, 0.0, 0.0, 0.0, 0.002, -0.048, 0.99, 192.0, 0.0, 0.0, 0.0, 0.0, 0.0, 0.0, 0.0, 0.0, 0.0, 1.715162451189393E9, 0.0, 2024-05-08 13:00:51.189
99.0, 18114.613665892324, 0.0, 0.0, 0.0, 0.0, 0.0, 0.0, 0.0, 0.002, -0.048, 0.99, 192.0, 0.0, 0.0, 0.0, 0.0, 0.0, 0.0, 0.0, 0.0, 0.0, 1.7151624511894112E9, 0.0, 2024-05-08 13:00:51.189
100.0, 16954.044038539414, 0.0, 0.0, 0.0, 0.0, 0.0, 0.0, 0.0, 0.002, -0.048, 0.99, 192.0, 0.0, 0.0, 0.0, 0.0, 0.0, 0.0, 0.0, 0.0, 0.0, 1.7151624511894302E9, 0.0, 2024-05-08 13:00:51.189
101.0, 16542.011981250285, 0.0, 0.0, 0.0, 0.0, 0.0, 0.0, 0.0, -0.002, -0.044, 0.99, 192.0, 255.0, 240.0, 254.0, 160.0, 30.0, 240.0, 0.0, 0.0, 0.0, 1.7151624511894484E9, 0.0, 2024-05-08 13:00:51.189
102.0, 17063.880510792795, 0.0, 0.0, 0.0, 0.0, 0.0, 0.0, 0.0, -0.002, -0.044, 0.99, 192.0, 0.0, 0.0, 0.0, 0.0, 0.0, 0.0, 0.0, 0.0, 0.0, 1.715162451189481E9, 0.0, 2024-05-08 13:00:51.189
103.0, 17276.445600562765, 0.0, 0.0, 0.0, 0.0, 0.0, 0.0, 0.0, -0.002, -0.044, 0.99, 192.0, 0.0, 0.0, 0.0, 0.0, 0.0, 0.0, 0.0, 0.0, 0.0, 1.7151624511894991E9, 0.0, 2024-05-08 13:00:51.189
104.0, 16310.47026043776, 0.0, 0.0, 0.0, 0.0, 0.0, 0.0, 0.0, -0.002, -0.044, 0.99, 192.0, 0.0, 0.0, 0.0, 0.0, 0.0, 0.0, 0.0, 0.0, 0.0, 1.7151624511895175E9, 0.0, 2024-05-08 13:00:51.189
105.0, 14923.365703030313, 0.0, 0.0, 0.0, 0.0, 0.0, 0.0, 0.0, -0.002, -0.044, 0.99, 192.0, 0.0, 0.0, 0.0, 0.0, 0.0, 0.0, 0.0, 0.0, 0.0, 1.7151624516668649E9, 0.0, 2024-05-08 13:00:51.666
106.0, 14486.657319862525, 0.0, 0.0, 0.0, 0.0, 0.0, 0.0, 0.0, -0.002, -0.044, 0.99, 192.0, 0.0, 0.0, 0.0, 0.0, 0.0, 0.0, 0.0, 0.0, 0.0, 1.7151624516669369E9, 0.0, 2024-05-08 13:00:51.666
107.0, 15165.502150714656, 0.0, 0.0, 0.0, 0.0, 0.0, 0.0, 0.0, -0.002, -0.044, 0.99, 192.0, 0.0, 0.0, 0.0, 0.0, 0.0, 0.0, 0.0, 0.0, 0.0, 1.7151624516669686E9, 0.0, 2024-05-08 13:00:51.666
108.0, 15620.42720561352, 0.0, 0.0, 0.0, 0.0, 0.0, 0.0, 0.0, -0.002, -0.044, 0.99, 192.0, 0.0, 0.0, 0.0, 0.0, 0.0, 0.0, 0.0, 0.0, 0.0, 1.715162451666997E9, 0.0, 2024-05-08 13:00:51.666
109.0, 14896.722423639587, 0.0, 0.0, 0.0, 0.0, 0.0, 0.0, 0.0, -0.002, -0.044, 0.99, 192.0, 0.0, 0.0, 0.0, 0.0, 0.0, 0.0, 0.0, 0.0, 0.0, 1.7151624516670256E9, 0.0, 2024-05-08 13:00:51.667
110.0, 13819.100119960323, 0.0, 0.0, 0.0, 0.0, 0.0, 0.0, 0.0, -0.002, -0.044, 0.99, 192.0, 0.0, 0.0, 0.0, 0.0, 0.0, 0.0, 0.0, 0.0, 0.0, 1.7151624516670537E9, 0.0, 2024-05-08 13:00:51.667
111.0, 13759.040982608913, 0.0, 0.0, 0.0, 0.0, 0.0, 0.0, 0.0, -0.004, -0.042, 0.986, 192.0, 255.0, 224.0, 254.0, 176.0, 30.0, 208.0, 0.0, 0.0, 0.0, 1.7151624516670825E9, 0.0, 2024-05-08 13:00:51.667
112.0, 14789.679919443122, 0.0, 0.0, 0.0, 0.0, 0.0, 0.0, 0.0, -0.004, -0.042, 0.986, 192.0, 0.0, 0.0, 0.0, 0.0, 0.0, 0.0, 0.0, 0.0, 0.0, 1.7151624516671033E9, 0.0, 2024-05-08 13:00:51.667
113.0, 15687.258921534887, 0.0, 0.0, 0.0, 0.0, 0.0, 0.0, 0.0, -0.004, -0.042, 0.986, 192.0, 0.0, 0.0, 0.0, 0.0, 0.0, 0.0, 0.0, 0.0, 0.0, 1.7151624516671205E9, 0.0, 2024-05-08 13:00:51.667
114.0, 15505.203962946413, 0.0, 0.0, 0.0, 0.0, 0.0, 0.0, 0.0, -0.004, -0.042, 0.986, 192.0, 0.0, 0.0, 0.0, 0.0, 0.0, 0.0, 0.0, 0.0, 0.0, 1.7151624516671376E9, 0.0, 2024-05-08 13:00:51.667
115.0, 15005.284846459013, 0.0, 0.0, 0.0, 0.0, 0.0, 0.0, 0.0, -0.004, -0.042, 0.986, 192.0, 0.0, 0.0, 0.0, 0.0, 0.0, 0.0, 0.0, 0.0, 0.0, 1.7151624516671565E9, 0.0, 2024-05-08 13:00:51.667
116.0, 15601.763498993338, 0.0, 0.0, 0.0, 0.0, 0.0, 0.0, 0.0, -0.004, -0.042, 0.986, 192.0, 0.0, 0.0, 0.0, 0.0, 0.0, 0.0, 0.0, 0.0, 0.0, 1.7151624516671708E9, 0.0, 2024-05-08 13:00:51.667
117.0, 17535.591725777595, 0.0, 0.0, 0.0, 0.0, 0.0, 0.0, 0.0, -0.004, -0.042, 0.986, 192.0, 0.0, 0.0, 0.0, 0.0, 0.0, 0.0, 0.0, 0.0, 0.0, 1.715162451667185E9, 0.0, 2024-05-08 13:00:51.667
118.0, 19620.853021246556, 0.0, 0.0, 0.0, 0.0, 0.0, 0.0, 0.0, -0.004, -0.042, 0.986, 192.0, 0.0, 0.0, 0.0, 0.0, 0.0, 0.0, 0.0, 0.0, 0.0, 1.7151624516672006E9, 0.0, 2024-05-08 13:00:51.667
119.0, 20907.441783838487, 0.0, 0.0, 0.0, 0.0, 0.0, 0.0, 0.0, -0.004, -0.042, 0.986, 192.0, 0.0, 0.0, 0.0, 0.0, 0.0, 0.0, 0.0, 0.0, 0.0, 1.71516245166731E9, 0.0, 2024-05-08 13:00:51.667
120.0, 22020.55865771278, 0.0, 0.0, 0.0, 0.0, 0.0, 0.0, 0.0, -0.004, -0.042, 0.986, 192.0, 0.0, 0.0, 0.0, 0.0, 0.0, 0.0, 0.0, 0.0, 0.0, 1.715162451667324E9, 0.0, 2024-05-08 13:00:51.667
121.0, 24264.629097536697, 0.0, 0.0, 0.0, 0.0, 0.0, 0.0, 0.0, -0.01, -0.04, 0.992, 192.0, 255.0, 176.0, 254.0, 192.0, 31.0, 0.0, 0.0, 0.0, 0.0, 1.7151624516673386E9, 0.0, 2024-05-08 13:00:51.667
122.0, 27794.818913318984, 0.0, 0.0, 0.0, 0.0, 0.0, 0.0, 0.0, -0.01, -0.04, 0.992, 192.0, 0.0, 0.0, 0.0, 0.0, 0.0, 0.0, 0.0, 0.0, 0.0, 1.7151624516673534E9, 0.0, 2024-05-08 13:00:51.667
123.0, 31219.4190882944, 0.0, 0.0, 0.0, 0.0, 0.0, 0.0, 0.0, -0.01, -0.04, 0.992, 192.0, 0.0, 0.0, 0.0, 0.0, 0.0, 0.0, 0.0, 0.0, 0.0, 1.7151624516673672E9, 0.0, 2024-05-08 13:00:51.667
124.0, 33467.53519386473, 0.0, 0.0, 0.0, 0.0, 0.0, 0.0, 0.0, -0.01, -0.04, 0.992, 192.0, 0.0, 0.0, 0.0, 0.0, 0.0, 0.0, 0.0, 0.0, 0.0, 1.7151624516673813E9, 0.0, 2024-05-08 13:00:51.667
125.0, 35093.95987915515, 0.0, 0.0, 0.0, 0.0, 0.0, 0.0, 0.0, -0.01, -0.04, 0.992, 192.0, 0.0, 0.0, 0.0, 0.0, 0.0, 0.0, 0.0, 0.0, 0.0, 1.7151624516673965E9, 0.0, 2024-05-08 13:00:51.667
126.0, 37329.3131386415, 0.0, 0.0, 0.0, 0.0, 0.0, 0.0, 0.0, -0.01, -0.04, 0.992, 192.0, 0.0, 0.0, 0.0, 0.0, 0.0, 0.0, 0.0, 0.0, 0.0, 1.7151624516674104E9, 0.0, 2024-05-08 13:00:51.667
127.0, 40104.37161974569, 0.0, 0.0, 0.0, 0.0, 0.0, 0.0, 0.0, -0.01, -0.04, 0.992, 192.0, 0.0, 0.0, 0.0, 0.0, 0.0, 0.0, 0.0, 0.0, 0.0, 1.7151624516674244E9, 0.0, 2024-05-08 13:00:51.667
128.0, 42113.324059644234, 0.0, 0.0, 0.0, 0.0, 0.0, 0.0, 0.0, -0.01, -0.04, 0.992, 192.0, 0.0, 0.0, 0.0, 0.0, 0.0, 0.0, 0.0, 0.0, 0.0, 1.7151624516674385E9, 0.0, 2024-05-08 13:00:51.667
129.0, 42475.89170645377, 0.0, 0.0, 0.0, 0.0, 0.0, 0.0, 0.0, -0.01, -0.04, 0.992, 192.0, 0.0, 0.0, 0.0, 0.0, 0.0, 0.0, 0.0, 0.0, 0.0, 1.7151624516674523E9, 0.0, 2024-05-08 13:00:51.667
130.0, 41912.337173502114, 0.0, 0.0, 0.0, 0.0, 0.0, 0.0, 0.0, -0.01, -0.04, 0.992, 192.0, 0.0, 0.0, 0.0, 0.0, 0.0, 0.0, 0.0, 0.0, 0.0, 1.7151624516674662E9, 0.0, 2024-05-08 13:00:51.667
131.0, 41858.06713796462, 0.0, 0.0, 0.0, 0.0, 0.0, 0.0, 0.0, -0.01, -0.04, 0.992, 192.0, 0.0, 0.0, 254.0, 208.0, 31.0, 80.0, 0.0, 0.0, 0.0, 1.715162451667482E9, 0.0, 2024-05-08 13:00:51.667
132.0, 42438.78781065796, 0.0, 0.0, 0.0, 0.0, 0.0, 0.0, 0.0, -0.01, -0.04, 0.992, 192.0, 0.0, 0.0, 0.0, 0.0, 0.0, 0.0, 0.0, 0.0, 0.0, 1.715162451667496E9, 0.0, 2024-05-08 13:00:51.667
133.0, 42445.56038922792, 0.0, 0.0, 0.0, 0.0, 0.0, 0.0, 0.0, -0.01, -0.04, 0.992, 192.0, 0.0, 0.0, 0.0, 0.0, 0.0, 0.0, 0.0, 0.0, 0.0, 1.71516245166751E9, 0.0, 2024-05-08 13:00:51.667
134.0, 41021.486046491395, 0.0, 0.0, 0.0, 0.0, 0.0, 0.0, 0.0, -0.01, -0.04, 0.992, 192.0, 0.0, 0.0, 0.0, 0.0, 0.0, 0.0, 0.0, 0.0, 0.0, 1.7151624516675236E9, 0.0, 2024-05-08 13:00:51.667
135.0, 39051.17977275608, 0.0, 0.0, 0.0, 0.0, 0.0, 0.0, 0.0, -0.01, -0.04, 0.992, 192.0, 0.0, 0.0, 0.0, 0.0, 0.0, 0.0, 0.0, 0.0, 0.0, 1.7151624516675377E9, 0.0, 2024-05-08 13:00:51.667
136.0, 37987.080274472275, 0.0, 0.0, 0.0, 0.0, 0.0, 0.0, 0.0, -0.01, -0.04, 0.992, 192.0, 0.0, 0.0, 0.0, 0.0, 0.0, 0.0, 0.0, 0.0, 0.0, 1.7151624516675615E9, 0.0, 2024-05-08 13:00:51.667
137.0, 38412.79159936805, 0.0, 0.0, 0.0, 0.0, 0.0, 0.0, 0.0, -0.01, -0.04, 0.992, 192.0, 0.0, 0.0, 0.0, 0.0, 0.0, 0.0, 0.0, 0.0, 0.0, 1.7151624516675763E9, 0.0, 2024-05-08 13:00:51.667
138.0, 39400.38107638134, 0.0, 0.0, 0.0, 0.0, 0.0, 0.0, 0.0, -0.01, -0.04, 0.992, 192.0, 0.0, 0.0, 0.0, 0.0, 0.0, 0.0, 0.0, 0.0, 0.0, 1.7151624516675963E9, 0.0, 2024-05-08 13:00:51.667
139.0, 39798.19742419689, 0.0, 0.0, 0.0, 0.0, 0.0, 0.0, 0.0, -0.01, -0.04, 0.992, 192.0, 0.0, 0.0, 0.0, 0.0, 0.0, 0.0, 0.0, 0.0, 0.0, 1.7151624516676145E9, 0.0, 2024-05-08 13:00:51.667
140.0, 39969.970580335925, 0.0, 0.0, 0.0, 0.0, 0.0, 0.0, 0.0, -0.01, -0.04, 0.992, 192.0, 0.0, 0.0, 0.0, 0.0, 0.0, 0.0, 0.0, 0.0, 0.0, 1.715162451667632E9, 0.0, 2024-05-08 13:00:51.667
141.0, 41097.817253806264, 0.0, 0.0, 0.0, 0.0, 0.0, 0.0, 0.0, 0.002, -0.044, 0.99, 192.0, 0.0, 16.0, 254.0, 160.0, 30.0, 240.0, 0.0, 0.0, 0.0, 1.715162451667649E9, 0.0, 2024-05-08 13:00:51.667
142.0, 43110.34597281766, 0.0, 0.0, 0.0, 0.0, 0.0, 0.0, 0.0, 0.002, -0.044, 0.99, 192.0, 0.0, 0.0, 0.0, 0.0, 0.0, 0.0, 0.0, 0.0, 0.0, 1.715162451667667E9, 0.0, 2024-05-08 13:00:51.667
143.0, 44554.983920453065, 0.0, 0.0, 0.0, 0.0, 0.0, 0.0, 0.0, 0.002, -0.044, 0.99, 192.0, 0.0, 0.0, 0.0, 0.0, 0.0, 0.0, 0.0, 0.0, 0.0, 1.7151624516676836E9, 0.0, 2024-05-08 13:00:51.667
144.0, 44353.080612788275, 0.0, 0.0, 0.0, 0.0, 0.0, 0.0, 0.0, 0.002, -0.044, 0.99, 192.0, 0.0, 0.0, 0.0, 0.0, 0.0, 0.0, 0.0, 0.0, 0.0, 1.7151624516677022E9, 0.0, 2024-05-08 13:00:51.667
145.0, 43214.326288023745, 0.0, 0.0, 0.0, 0.0, 0.0, 0.0, 0.0, 0.002, -0.044, 0.99, 192.0, 0.0, 0.0, 0.0, 0.0, 0.0, 0.0, 0.0, 0.0, 0.0, 1.7151624516677194E9, 0.0, 2024-05-08 13:00:51.667
146.0, 42624.217882659184, 0.0, 0.0, 0.0, 0.0, 0.0, 0.0, 0.0, 0.002, -0.044, 0.99, 192.0, 0.0, 0.0, 0.0, 0.0, 0.0, 0.0, 0.0, 0.0, 0.0, 1.715162451667738E9, 0.0, 2024-05-08 13:00:51.667
147.0, 42759.53534359161, 0.0, 0.0, 0.0, 0.0, 0.0, 0.0, 0.0, 0.002, -0.044, 0.99, 192.0, 0.0, 0.0, 0.0, 0.0, 0.0, 0.0, 0.0, 0.0, 0.0, 1.7151624516677566E9, 0.0, 2024-05-08 13:00:51.667
148.0, 42394.86663280328, 0.0, 0.0, 0.0, 0.0, 0.0, 0.0, 0.0, 0.002, -0.044, 0.99, 192.0, 0.0, 0.0, 0.0, 0.0, 0.0, 0.0, 0.0, 0.0, 0.0, 1.7151624516677756E9, 0.0, 2024-05-08 13:00:51.667
149.0, 40579.88263128789, 0.0, 0.0, 0.0, 0.0, 0.0, 0.0, 0.0, 0.002, -0.044, 0.99, 192.0, 0.0, 0.0, 0.0, 0.0, 0.0, 0.0, 0.0, 0.0, 0.0, 1.715162451667796E9, 0.0, 2024-05-08 13:00:51.667
150.0, 37918.86275039468, 0.0, 0.0, 0.0, 0.0, 0.0, 0.0, 0.0, 0.002, -0.044, 0.99, 192.0, 0.0, 0.0, 0.0, 0.0, 0.0, 0.0, 0.0, 0.0, 0.0, 1.7151624516678145E9, 0.0, 2024-05-08 13:00:51.667
151.0, 35990.331887046326, 0.0, 0.0, 0.0, 0.0, 0.0, 0.0, 0.0, 0.004, -0.046, 0.99, 192.0, 0.0, 32.0, 254.0, 144.0, 30.0, 240.0, 0.0, 0.0, 0.0, 1.7151624516678336E9, 0.0, 2024-05-08 13:00:51.667
152.0, 35019.50621837452, 0.0, 0.0, 0.0, 0.0, 0.0, 0.0, 0.0, 0.004, -0.046, 0.99, 192.0, 0.0, 0.0, 0.0, 0.0, 0.0, 0.0, 0.0, 0.0, 0.0, 1.715162451667853E9, 0.0, 2024-05-08 13:00:51.667
153.0, 33764.16519453111, 0.0, 0.0, 0.0, 0.0, 0.0, 0.0, 0.0, 0.004, -0.046, 0.99, 192.0, 0.0, 0.0, 0.0, 0.0, 0.0, 0.0, 0.0, 0.0, 0.0, 1.715162451667873E9, 0.0, 2024-05-08 13:00:51.667
154.0, 31329.568484970154, 0.0, 0.0, 0.0, 0.0, 0.0, 0.0, 0.0, 0.004, -0.046, 0.99, 192.0, 0.0, 0.0, 0.0, 0.0, 0.0, 0.0, 0.0, 0.0, 0.0, 1.7151624516679084E9, 0.0, 2024-05-08 13:00:51.667
155.0, 28406.519103827373, 0.0, 0.0, 0.0, 0.0, 0.0, 0.0, 0.0, 0.004, -0.046, 0.99, 192.0, 0.0, 0.0, 0.0, 0.0, 0.0, 0.0, 0.0, 0.0, 0.0, 1.7151624516679265E9, 0.0, 2024-05-08 13:00:51.667
156.0, 26214.48352509541, 0.0, 0.0, 0.0, 0.0, 0.0, 0.0, 0.0, 0.004, -0.046, 0.99, 192.0, 0.0, 0.0, 0.0, 0.0, 0.0, 0.0, 0.0, 0.0, 0.0, 1.7151624516679456E9, 0.0, 2024-05-08 13:00:51.667
157.0, 25078.34435443215, 0.0, 0.0, 0.0, 0.0, 0.0, 0.0, 0.0, 0.004, -0.046, 0.99, 192.0, 0.0, 0.0, 0.0, 0.0, 0.0, 0.0, 0.0, 0.0, 0.0, 1.715162451667966E9, 0.0, 2024-05-08 13:00:51.667
158.0, 23715.379681036437, 0.0, 0.0, 0.0, 0.0, 0.0, 0.0, 0.0, 0.004, -0.046, 0.99, 192.0, 0.0, 0.0, 0.0, 0.0, 0.0, 0.0, 0.0, 0.0, 0.0, 1.715162451667984E9, 0.0, 2024-05-08 13:00:51.667
159.0, 21324.100652229867, 0.0, 0.0, 0.0, 0.0, 0.0, 0.0, 0.0, 0.004, -0.046, 0.99, 192.0, 0.0, 0.0, 0.0, 0.0, 0.0, 0.0, 0.0, 0.0, 0.0, 1.7151624516680067E9, 0.0, 2024-05-08 13:00:51.668
160.0, 18545.868223413017, 0.0, 0.0, 0.0, 0.0, 0.0, 0.0, 0.0, 0.004, -0.046, 0.99, 192.0, 0.0, 0.0, 0.0, 0.0, 0.0, 0.0, 0.0, 0.0, 0.0, 1.715162451668024E9, 0.0, 2024-05-08 13:00:51.668
161.0, 16602.04876685724, 0.0, 0.0, 0.0, 0.0, 0.0, 0.0, 0.0, 0.004, -0.048, 1.0, 192.0, 0.0, 32.0, 254.0, 128.0, 31.0, 64.0, 0.0, 0.0, 0.0, 1.7151624516680415E9, 0.0, 2024-05-08 13:00:51.668
162.0, 15667.164703269567, 0.0, 0.0, 0.0, 0.0, 0.0, 0.0, 0.0, 0.004, -0.048, 1.0, 192.0, 0.0, 0.0, 0.0, 0.0, 0.0, 0.0, 0.0, 0.0, 0.0, 1.7151624516680613E9, 0.0, 2024-05-08 13:00:51.668
163.0, 14606.17209746505, 0.0, 0.0, 0.0, 0.0, 0.0, 0.0, 0.0, 0.004, -0.048, 1.0, 192.0, 0.0, 0.0, 0.0, 0.0, 0.0, 0.0, 0.0, 0.0, 0.0, 1.7151624516680875E9, 0.0, 2024-05-08 13:00:51.668
164.0, 12637.229280141508, 0.0, 0.0, 0.0, 0.0, 0.0, 0.0, 0.0, 0.004, -0.048, 1.0, 192.0, 0.0, 0.0, 0.0, 0.0, 0.0, 0.0, 0.0, 0.0, 0.0, 1.7151624516681075E9, 0.0, 2024-05-08 13:00:51.668
165.0, 10254.041582827758, 0.0, 0.0, 0.0, 0.0, 0.0, 0.0, 0.0, 0.004, -0.048, 1.0, 192.0, 0.0, 0.0, 0.0, 0.0, 0.0, 0.0, 0.0, 0.0, 0.0, 1.7151624516681244E9, 0.0, 2024-05-08 13:00:51.668
166.0, 8700.707101906193, 0.0, 0.0, 0.0, 0.0, 0.0, 0.0, 0.0, 0.004, -0.048, 1.0, 192.0, 0.0, 0.0, 0.0, 0.0, 0.0, 0.0, 0.0, 0.0, 0.0, 1.7151624516681423E9, 0.0, 2024-05-08 13:00:51.668
167.0, 8102.753234237819, 0.0, 0.0, 0.0, 0.0, 0.0, 0.0, 0.0, 0.004, -0.048, 1.0, 192.0, 0.0, 0.0, 0.0, 0.0, 0.0, 0.0, 0.0, 0.0, 0.0, 1.7151624516681597E9, 0.0, 2024-05-08 13:00:51.668
168.0, 7531.152073282251, 0.0, 0.0, 0.0, 0.0, 0.0, 0.0, 0.0, 0.004, -0.048, 1.0, 192.0, 0.0, 0.0, 0.0, 0.0, 0.0, 0.0, 0.0, 0.0, 0.0, 1.7151624516681776E9, 0.0, 2024-05-08 13:00:51.668
169.0, 6002.180993816972, 0.0, 0.0, 0.0, 0.0, 0.0, 0.0, 0.0, 0.004, -0.048, 1.0, 192.0, 0.0, 0.0, 0.0, 0.0, 0.0, 0.0, 0.0, 0.0, 0.0, 1.7151624516681952E9, 0.0, 2024-05-08 13:00:51.668
170.0, 4018.2401559639165, 0.0, 0.0, 0.0, 0.0, 0.0, 0.0, 0.0, 0.004, -0.048, 1.0, 192.0, 0.0, 0.0, 0.0, 0.0, 0.0, 0.0, 0.0, 0.0, 0.0, 1.7151624516682124E9, 0.0, 2024-05-08 13:00:51.668
171.0, 2793.051635390715, 0.0, 0.0, 0.0, 0.0, 0.0, 0.0, 0.0, 0.002, -0.046, 0.984, 192.0, 0.0, 16.0, 254.0, 144.0, 30.0, 192.0, 0.0, 0.0, 0.0, 1.7151624516683521E9, 0.0, 2024-05-08 13:00:51.668
172.0, 2560.973472711262, 0.0, 0.0, 0.0, 0.0, 0.0, 0.0, 0.0, 0.002, -0.046, 0.984, 192.0, 0.0, 0.0, 0.0, 0.0, 0.0, 0.0, 0.0, 0.0, 0.0, 1.7151624516683688E9, 0.0, 2024-05-08 13:00:51.668
173.0, 2301.268553885049, 0.0, 0.0, 0.0, 0.0, 0.0, 0.0, 0.0, 0.002, -0.046, 0.984, 192.0, 0.0, 0.0, 0.0, 0.0, 0.0, 0.0, 0.0, 0.0, 0.0, 1.715162451668383E9, 0.0, 2024-05-08 13:00:51.668
174.0, 1055.1811522461358, 0.0, 0.0, 0.0, 0.0, 0.0, 0.0, 0.0, 0.002, -0.046, 0.984, 192.0, 0.0, 0.0, 0.0, 0.0, 0.0, 0.0, 0.0, 0.0, 0.0, 1.7151624516683972E9, 0.0, 2024-05-08 13:00:51.668
175.0, -619.7468185122989, 0.0, 0.0, 0.0, 0.0, 0.0, 0.0, 0.0, 0.002, -0.046, 0.984, 192.0, 0.0, 0.0, 0.0, 0.0, 0.0, 0.0, 0.0, 0.0, 0.0, 1.715162451668411E9, 0.0, 2024-05-08 13:00:51.668
176.0, -1511.603774023506, 0.0, 0.0, 0.0, 0.0, 0.0, 0.0, 0.0, 0.002, -0.046, 0.984, 192.0, 0.0, 0.0, 0.0, 0.0, 0.0, 0.0, 0.0, 0.0, 0.0, 1.715162451668425E9, 0.0, 2024-05-08 13:00:51.668
177.0, -1399.442720346775, 0.0, 0.0, 0.0, 0.0, 0.0, 0.0, 0.0, 0.002, -0.046, 0.984, 192.0, 0.0, 0.0, 0.0, 0.0, 0.0, 0.0, 0.0, 0.0, 0.0, 1.7151624516684408E9, 0.0, 2024-05-08 13:00:51.668
178.0, -1368.0385193870688, 0.0, 0.0, 0.0, 0.0, 0.0, 0.0, 0.0, 0.002, -0.046, 0.984, 192.0, 0.0, 0.0, 0.0, 0.0, 0.0, 0.0, 0.0, 0.0, 0.0, 1.715162451668455E9, 0.0, 2024-05-08 13:00:51.668
179.0, -2208.2629452065166, 0.0, 0.0, 0.0, 0.0, 0.0, 0.0, 0.0, 0.002, -0.046, 0.984, 192.0, 0.0, 0.0, 0.0, 0.0, 0.0, 0.0, 0.0, 0.0, 0.0, 1.7151624516684687E9, 0.0, 2024-05-08 13:00:51.668
180.0, -3514.5212429191165, 0.0, 0.0, 0.0, 0.0, 0.0, 0.0, 0.0, 0.002, -0.046, 0.984, 192.0, 0.0, 0.0, 0.0, 0.0, 0.0, 0.0, 0.0, 0.0, 0.0, 1.7151624516684825E9, 0.0, 2024-05-08 13:00:51.668
181.0, -4045.486932454936, 0.0, 0.0, 0.0, 0.0, 0.0, 0.0, 0.0, 0.004, -0.05, 0.988, 192.0, 0.0, 32.0, 254.0, 112.0, 30.0, 224.0, 0.0, 0.0, 0.0, 1.7151624516684964E9, 0.0, 2024-05-08 13:00:51.668
182.0, -3585.577438542538, 0.0, 0.0, 0.0, 0.0, 0.0, 0.0, 0.0, 0.004, -0.05, 0.988, 192.0, 0.0, 0.0, 0.0, 0.0, 0.0, 0.0, 0.0, 0.0, 0.0, 1.7151624516685112E9, 0.0, 2024-05-08 13:00:51.668
183.0, -3211.0516084494125, 0.0, 0.0, 0.0, 0.0, 0.0, 0.0, 0.0, 0.004, -0.05, 0.988, 192.0, 0.0, 0.0, 0.0, 0.0, 0.0, 0.0, 0.0, 0.0, 0.0, 1.7151624516685247E9, 0.0, 2024-05-08 13:00:51.668
184.0, -3756.612987114547, 0.0, 0.0, 0.0, 0.0, 0.0, 0.0, 0.0, 0.004, -0.05, 0.988, 192.0, 0.0, 0.0, 0.0, 0.0, 0.0, 0.0, 0.0, 0.0, 0.0, 1.7151624516685405E9, 0.0, 2024-05-08 13:00:51.668
185.0, -4765.078993449091, 0.0, 0.0, 0.0, 0.0, 0.0, 0.0, 0.0, 0.004, -0.05, 0.988, 192.0, 0.0, 0.0, 0.0, 0.0, 0.0, 0.0, 0.0, 0.0, 0.0, 1.7151624516685543E9, 0.0, 2024-05-08 13:00:51.668
186.0, -5049.214368964955, 0.0, 0.0, 0.0, 0.0, 0.0, 0.0, 0.0, 0.004, -0.05, 0.988, 192.0, 0.0, 0.0, 0.0, 0.0, 0.0, 0.0, 0.0, 0.0, 0.0, 1.7151624516685684E9, 0.0, 2024-05-08 13:00:51.668
187.0, -4418.895175325296, 0.0, 0.0, 0.0, 0.0, 0.0, 0.0, 0.0, 0.004, -0.05, 0.988, 192.0, 0.0, 0.0, 0.0, 0.0, 0.0, 0.0, 0.0, 0.0, 0.0, 1.715162451668582E9, 0.0, 2024-05-08 13:00:51.668
188.0, -3906.816709854211, 0.0, 0.0, 0.0, 0.0, 0.0, 0.0, 0.0, 0.004, -0.05, 0.988, 192.0, 0.0, 0.0, 0.0, 0.0, 0.0, 0.0, 0.0, 0.0, 0.0, 1.715162451668596E9, 0.0, 2024-05-08 13:00:51.668
189.0, -4404.791224573997, 0.0, 0.0, 0.0, 0.0, 0.0, 0.0, 0.0, 0.004, -0.05, 0.988, 192.0, 0.0, 0.0, 0.0, 0.0, 0.0, 0.0, 0.0, 0.0, 0.0, 1.71516245166867E9, 0.0, 2024-05-08 13:00:51.668
190.0, -5429.2387281940855, 0.0, 0.0, 0.0, 0.0, 0.0, 0.0, 0.0, 0.004, -0.05, 0.988, 192.0, 0.0, 0.0, 0.0, 0.0, 0.0, 0.0, 0.0, 0.0, 0.0, 1.7151624516686912E9, 0.0, 2024-05-08 13:00:51.668
191.0, -5718.984391568231, 0.0, 0.0, 0.0, 0.0, 0.0, 0.0, 0.0, 0.002, -0.05, 0.99, 192.0, 0.0, 16.0, 254.0, 112.0, 30.0, 240.0, 0.0, 0.0, 0.0, 1.71516245166871E9, 0.0, 2024-05-08 13:00:51.668
192.0, -5048.767334075848, 0.0, 0.0, 0.0, 0.0, 0.0, 0.0, 0.0, 0.002, -0.05, 0.99, 192.0, 0.0, 0.0, 0.0, 0.0, 0.0, 0.0, 0.0, 0.0, 0.0, 1.7151624516687298E9, 0.0, 2024-05-08 13:00:51.668
193.0, -4483.402309823312, 0.0, 0.0, 0.0, 0.0, 0.0, 0.0, 0.0, 0.002, -0.05, 0.99, 192.0, 0.0, 0.0, 0.0, 0.0, 0.0, 0.0, 0.0, 0.0, 0.0, 1.7151624516687472E9, 0.0, 2024-05-08 13:00:51.668
194.0, -4930.638364629551, 0.0, 0.0, 0.0, 0.0, 0.0, 0.0, 0.0, 0.002, -0.05, 0.99, 192.0, 0.0, 0.0, 0.0, 0.0, 0.0, 0.0, 0.0, 0.0, 0.0, 1.715162451668765E9, 0.0, 2024-05-08 13:00:51.668
195.0, -5923.234632400827, 0.0, 0.0, 0.0, 0.0, 0.0, 0.0, 0.0, 0.002, -0.05, 0.99, 192.0, 0.0, 0.0, 0.0, 0.0, 0.0, 0.0, 0.0, 0.0, 0.0, 1.715162451668783E9, 0.0, 2024-05-08 13:00:51.668
196.0, -6201.335036913757, 0.0, 0.0, 0.0, 0.0, 0.0, 0.0, 0.0, 0.002, -0.05, 0.99, 192.0, 0.0, 0.0, 0.0, 0.0, 0.0, 0.0, 0.0, 0.0, 0.0, 1.7151624516688008E9, 0.0, 2024-05-08 13:00:51.668
197.0, -5490.840135912912, 0.0, 0.0, 0.0, 0.0, 0.0, 0.0, 0.0, 0.002, -0.05, 0.99, 192.0, 0.0, 0.0, 0.0, 0.0, 0.0, 0.0, 0.0, 0.0, 0.0, 1.7151624516688237E9, 0.0, 2024-05-08 13:00:51.668
198.0, -4900.798785781716, 0.0, 0.0, 0.0, 0.0, 0.0, 0.0, 0.0, 0.002, -0.05, 0.99, 192.0, 0.0, 0.0, 0.0, 0.0, 0.0, 0.0, 0.0, 0.0, 0.0, 1.7151624516688433E9, 0.0, 2024-05-08 13:00:51.668
199.0, -5236.164359589143, 0.0, 0.0, 0.0, 0.0, 0.0, 0.0, 0.0, 0.002, -0.05, 0.99, 192.0, 0.0, 0.0, 0.0, 0.0, 0.0, 0.0, 0.0, 0.0, 0.0, 1.7151624516688612E9, 0.0, 2024-05-08 13:00:51.668
200.0, -6161.88420795014, 0.0, 0.0, 0.0, 0.0, 0.0, 0.0, 0.0, 0.002, -0.05, 0.99, 192.0, 0.0, 0.0, 0.0, 0.0, 0.0, 0.0, 0.0, 0.0, 0.0, 1.7151624516688797E9, 0.0, 2024-05-08 13:00:51.668
201.0, -6409.899164426228, 0.0, 0.0, 0.0, 0.0, 0.0, 0.0, 0.0, 0.002, -0.05, 0.99, 192.0, 0.0, 0.0, 254.0, 112.0, 31.0, 0.0, 0.0, 0.0, 0.0, 1.715162451668898E9, 0.0, 2024-05-08 13:00:51.668
202.0, -5684.6968155737895, 0.0, 0.0, 0.0, 0.0, 0.0, 0.0, 0.0, 0.002, -0.05, 0.99, 192.0, 0.0, 0.0, 0.0, 0.0, 0.0, 0.0, 0.0, 0.0, 0.0, 1.7151624516689167E9, 0.0, 2024-05-08 13:00:51.668
203.0, -5013.5409848142845, 0.0, 0.0, 0.0, 0.0, 0.0, 0.0, 0.0, 0.002, -0.05, 0.99, 192.0, 0.0, 0.0, 0.0, 0.0, 0.0, 0.0, 0.0, 0.0, 0.0, 1.7151624516689365E9, 0.0, 2024-05-08 13:00:51.668
204.0, -5345.799666142424, 0.0, 0.0, 0.0, 0.0, 0.0, 0.0, 0.0, 0.002, -0.05, 0.99, 192.0, 0.0, 0.0, 0.0, 0.0, 0.0, 0.0, 0.0, 0.0, 0.0, 1.7151624516689544E9, 0.0, 2024-05-08 13:00:51.668
205.0, -6284.684691987597, 0.0, 0.0, 0.0, 0.0, 0.0, 0.0, 0.0, 0.002, -0.05, 0.99, 192.0, 0.0, 0.0, 0.0, 0.0, 0.0, 0.0, 0.0, 0.0, 0.0, 1.7151624516689727E9, 0.0, 2024-05-08 13:00:51.668
206.0, -6524.071875103936, 0.0, 0.0, 0.0, 0.0, 0.0, 0.0, 0.0, 0.002, -0.05, 0.99, 192.0, 0.0, 0.0, 0.0, 0.0, 0.0, 0.0, 0.0, 0.0, 0.0, 1.7151624516690495E9, 0.0, 2024-05-08 13:00:51.669
207.0, -5772.941502683342, 0.0, 0.0, 0.0, 0.0, 0.0, 0.0, 0.0, 0.002, -0.05, 0.99, 192.0, 0.0, 0.0, 0.0, 0.0, 0.0, 0.0, 0.0, 0.0, 0.0, 1.71516245166907E9, 0.0, 2024-05-08 13:00:51.669
208.0, -5151.428896359074, 0.0, 0.0, 0.0, 0.0, 0.0, 0.0, 0.0, 0.002, -0.05, 0.99, 192.0, 0.0, 0.0, 0.0, 0.0, 0.0, 0.0, 0.0, 0.0, 0.0, 1.7151624516691043E9, 0.0, 2024-05-08 13:00:51.669
209.0, -5558.901197779322, 0.0, 0.0, 0.0, 0.0, 0.0, 0.0, 0.0, 0.002, -0.05, 0.99, 192.0, 0.0, 0.0, 0.0, 0.0, 0.0, 0.0, 0.0, 0.0, 0.0, 1.715162451669124E9, 0.0, 2024-05-08 13:00:51.669
210.0, -6588.310788668488, 0.0, 0.0, 0.0, 0.0, 0.0, 0.0, 0.0, 0.002, -0.05, 0.99, 192.0, 0.0, 0.0, 0.0, 0.0, 0.0, 0.0, 0.0, 0.0, 0.0, 1.715162451669145E9, 0.0, 2024-05-08 13:00:51.669
211.0, -6921.530595008207, 0.0, 0.0, 0.0, 0.0, 0.0, 0.0, 0.0, 0.002, -0.05, 0.99, 192.0, 0.0, 0.0, 254.0, 128.0, 31.0, 16.0, 0.0, 0.0, 0.0, 1.7151624516691644E9, 0.0, 2024-05-08 13:00:51.669
212.0, -6287.612770511243, 0.0, 0.0, 0.0, 0.0, 0.0, 0.0, 0.0, 0.002, -0.05, 0.99, 192.0, 0.0, 0.0, 0.0, 0.0, 0.0, 0.0, 0.0, 0.0, 0.0, 1.715162451669184E9, 0.0, 2024-05-08 13:00:51.669
213.0, -5814.113415970018, 0.0, 0.0, 0.0, 0.0, 0.0, 0.0, 0.0, 0.002, -0.05, 0.99, 192.0, 0.0, 0.0, 0.0, 0.0, 0.0, 0.0, 0.0, 0.0, 0.0, 1.7151624516692035E9, 0.0, 2024-05-08 13:00:51.669
214.0, -6283.567104764832, 0.0, 0.0, 0.0, 0.0, 0.0, 0.0, 0.0, 0.002, -0.05, 0.99, 192.0, 0.0, 0.0, 0.0, 0.0, 0.0, 0.0, 0.0, 0.0, 0.0, 1.7151624516692245E9, 0.0, 2024-05-08 13:00:51.669
215.0, -7421.427359751148, 0.0, 0.0, 0.0, 0.0, 0.0, 0.0, 0.0, 0.002, -0.05, 0.99, 192.0, 0.0, 0.0, 0.0, 0.0, 0.0, 0.0, 0.0, 0.0, 0.0, 1.7151624516692429E9, 0.0, 2024-05-08 13:00:51.669
216.0, -7892.490374146745, 0.0, 0.0, 0.0, 0.0, 0.0, 0.0, 0.0, 0.002, -0.05, 0.99, 192.0, 0.0, 0.0, 0.0, 0.0, 0.0, 0.0, 0.0, 0.0, 0.0, 1.7151624516692626E9, 0.0, 2024-05-08 13:00:51.669
217.0, -7318.698742234557, 0.0, 0.0, 0.0, 0.0, 0.0, 0.0, 0.0, 0.002, -0.05, 0.99, 192.0, 0.0, 0.0, 0.0, 0.0, 0.0, 0.0, 0.0, 0.0, 0.0, 1.7151624516692812E9, 0.0, 2024-05-08 13:00:51.669
218.0, -6837.800960278626, 0.0, 0.0, 0.0, 0.0, 0.0, 0.0, 0.0, 0.002, -0.05, 0.99, 192.0, 0.0, 0.0, 0.0, 0.0, 0.0, 0.0, 0.0, 0.0, 0.0, 1.7151624516692994E9, 0.0, 2024-05-08 13:00:51.669
219.0, -7391.7665948589565, 0.0, 0.0, 0.0, 0.0, 0.0, 0.0, 0.0, 0.002, -0.05, 0.99, 192.0, 0.0, 0.0, 0.0, 0.0, 0.0, 0.0, 0.0, 0.0, 0.0, 1.7151624516693172E9, 0.0, 2024-05-08 13:00:51.669
220.0, -8512.997151970525, 0.0, 0.0, 0.0, 0.0, 0.0, 0.0, 0.0, 0.002, -0.05, 0.99, 192.0, 0.0, 0.0, 0.0, 0.0, 0.0, 0.0, 0.0, 0.0, 0.0, 1.715162451669336E9, 0.0, 2024-05-08 13:00:51.669
221.0, -8884.013758184166, 0.0, 0.0, 0.0, 0.0, 0.0, 0.0, 0.0, 0.002, -0.05, 0.99, 192.0, 0.0, 0.0, 254.0, 144.0, 31.0, 0.0, 0.0, 0.0, 0.0, 1.7151624516693568E9, 0.0, 2024-05-08 13:00:51.669
222.0, -8201.994979619381, 0.0, 0.0, 0.0, 0.0, 0.0, 0.0, 0.0, 0.002, -0.05, 0.99, 192.0, 0.0, 0.0, 0.0, 0.0, 0.0, 0.0, 0.0, 0.0, 0.0, 1.715162451669378E9, 0.0, 2024-05-08 13:00:51.669
223.0, -7649.191635750728, 0.0, 0.0, 0.0, 0.0, 0.0, 0.0, 0.0, 0.002, -0.05, 0.99, 192.0, 0.0, 0.0, 0.0, 0.0, 0.0, 0.0, 0.0, 0.0, 0.0, 1.7151624516693988E9, 0.0, 2024-05-08 13:00:51.669
224.0, -8172.781249616296, 0.0, 0.0, 0.0, 0.0, 0.0, 0.0, 0.0, 0.002, -0.05, 0.99, 192.0, 0.0, 0.0, 0.0, 0.0, 0.0, 0.0, 0.0, 0.0, 0.0, 1.7151624516694868E9, 0.0, 2024-05-08 13:00:51.669
225.0, -9384.625778749678, 0.0, 0.0, 0.0, 0.0, 0.0, 0.0, 0.0, 0.002, -0.05, 0.99, 192.0, 0.0, 0.0, 0.0, 0.0, 0.0, 0.0, 0.0, 0.0, 0.0, 1.7151624521466756E9, 0.0, 2024-05-08 13:00:52.146
226.0, -9904.81792745804, 0.0, 0.0, 0.0, 0.0, 0.0, 0.0, 0.0, 0.002, -0.05, 0.99, 192.0, 0.0, 0.0, 0.0, 0.0, 0.0, 0.0, 0.0, 0.0, 0.0, 1.7151624521467807E9, 0.0, 2024-05-08 13:00:52.146
227.0, -9371.348842543226, 0.0, 0.0, 0.0, 0.0, 0.0, 0.0, 0.0, 0.002, -0.05, 0.99, 192.0, 0.0, 0.0, 0.0, 0.0, 0.0, 0.0, 0.0, 0.0, 0.0, 1.7151624521468124E9, 0.0, 2024-05-08 13:00:52.146
228.0, -9026.506129086749, 0.0, 0.0, 0.0, 0.0, 0.0, 0.0, 0.0, 0.002, -0.05, 0.99, 192.0, 0.0, 0.0, 0.0, 0.0, 0.0, 0.0, 0.0, 0.0, 0.0, 1.715162452146844E9, 0.0, 2024-05-08 13:00:52.146
229.0, -9827.413836409312, 0.0, 0.0, 0.0, 0.0, 0.0, 0.0, 0.0, 0.002, -0.05, 0.99, 192.0, 0.0, 0.0, 0.0, 0.0, 0.0, 0.0, 0.0, 0.0, 0.0, 1.7151624521468728E9, 0.0, 2024-05-08 13:00:52.146
230.0, -11380.234227208404, 0.0, 0.0, 0.0, 0.0, 0.0, 0.0, 0.0, 0.002, -0.05, 0.99, 192.0, 0.0, 0.0, 0.0, 0.0, 0.0, 0.0, 0.0, 0.0, 0.0, 1.715162452146893E9, 0.0, 2024-05-08 13:00:52.146
231.0, -11693.69509144963, 0.0, 0.0, 0.0, 0.0, 0.0, 0.0, 0.0, 0.002, -0.05, 0.99, 192.0, 0.0, 0.0, 254.0, 128.0, 30.0, 192.0, 0.0, 0.0, 0.0, 1.715162452146912E9, 0.0, 2024-05-08 13:00:52.146
232.0, -10391.05777633879, 0.0, 0.0, 0.0, 0.0, 0.0, 0.0, 0.0, 0.002, -0.05, 0.99, 192.0, 0.0, 0.0, 0.0, 0.0, 0.0, 0.0, 0.0, 0.0, 0.0, 1.7151624521469307E9, 0.0, 2024-05-08 13:00:52.146
233.0, -8874.357804579473, 0.0, 0.0, 0.0, 0.0, 0.0, 0.0, 0.0, 0.002, -0.05, 0.99, 192.0, 0.0, 0.0, 0.0, 0.0, 0.0, 0.0, 0.0, 0.0, 0.0, 1.7151624521469495E9, 0.0, 2024-05-08 13:00:52.146
234.0, -8303.248382001922, 0.0, 0.0, 0.0, 0.0, 0.0, 0.0, 0.0, 0.002, -0.05, 0.99, 192.0, 0.0, 0.0, 0.0, 0.0, 0.0, 0.0, 0.0, 0.0, 0.0, 1.7151624521469643E9, 0.0, 2024-05-08 13:00:52.146
235.0, -8440.353982490777, 0.0, 0.0, 0.0, 0.0, 0.0, 0.0, 0.0, 0.002, -0.05, 0.99, 192.0, 0.0, 0.0, 0.0, 0.0, 0.0, 0.0, 0.0, 0.0, 0.0, 1.715162452146978E9, 0.0, 2024-05-08 13:00:52.146
236.0, -7925.079217562583, 0.0, 0.0, 0.0, 0.0, 0.0, 0.0, 0.0, 0.002, -0.05, 0.99, 192.0, 0.0, 0.0, 0.0, 0.0, 0.0, 0.0, 0.0, 0.0, 0.0, 1.7151624521469946E9, 0.0, 2024-05-08 13:00:52.146
237.0, -6391.235457806046, 0.0, 0.0, 0.0, 0.0, 0.0, 0.0, 0.0, 0.002, -0.05, 0.99, 192.0, 0.0, 0.0, 0.0, 0.0, 0.0, 0.0, 0.0, 0.0, 0.0, 1.7151624521470084E9, 0.0, 2024-05-08 13:00:52.147
238.0, -5032.0258774788235, 0.0, 0.0, 0.0, 0.0, 0.0, 0.0, 0.0, 0.002, -0.05, 0.99, 192.0, 0.0, 0.0, 0.0, 0.0, 0.0, 0.0, 0.0, 0.0, 0.0, 1.7151624521470227E9, 0.0, 2024-05-08 13:00:52.147
239.0, -4853.323680558644, 0.0, 0.0, 0.0, 0.0, 0.0, 0.0, 0.0, 0.002, -0.05, 0.99, 192.0, 0.0, 0.0, 0.0, 0.0, 0.0, 0.0, 0.0, 0.0, 0.0, 1.7151624521470366E9, 0.0, 2024-05-08 13:00:52.147
240.0, -5521.797301983512, 0.0, 0.0, 0.0, 0.0, 0.0, 0.0, 0.0, 0.002, -0.05, 0.99, 192.0, 0.0, 0.0, 0.0, 0.0, 0.0, 0.0, 0.0, 0.0, 0.0, 1.7151624521470504E9, 0.0, 2024-05-08 13:00:52.147
241.0, -5530.693296276724, 0.0, 0.0, 0.0, 0.0, 0.0, 0.0, 0.0, 0.002, -0.05, 0.984, 192.0, 0.0, 16.0, 254.0, 112.0, 30.0, 192.0, 0.0, 0.0, 0.0, 1.71516245214725E9, 0.0, 2024-05-08 13:00:52.147
242.0, -4483.916399945784, 0.0, 0.0, 0.0, 0.0, 0.0, 0.0, 0.0, 0.002, -0.05, 0.984, 192.0, 0.0, 0.0, 0.0, 0.0, 0.0, 0.0, 0.0, 0.0, 0.0, 1.7151624521472704E9, 0.0, 2024-05-08 13:00:52.147
243.0, -3580.9506274402893, 0.0, 0.0, 0.0, 0.0, 0.0, 0.0, 0.0, 0.002, -0.05, 0.984, 192.0, 0.0, 0.0, 0.0, 0.0, 0.0, 0.0, 0.0, 0.0, 0.0, 1.7151624521472871E9, 0.0, 2024-05-08 13:00:52.147
244.0, -3663.093288313543, 0.0, 0.0, 0.0, 0.0, 0.0, 0.0, 0.0, 0.002, -0.05, 0.984, 192.0, 0.0, 0.0, 0.0, 0.0, 0.0, 0.0, 0.0, 0.0, 0.0, 1.7151624521473017E9, 0.0, 2024-05-08 13:00:52.147
245.0, -4617.065741666048, 0.0, 0.0, 0.0, 0.0, 0.0, 0.0, 0.0, 0.002, -0.05, 0.984, 192.0, 0.0, 0.0, 0.0, 0.0, 0.0, 0.0, 0.0, 0.0, 0.0, 1.7151624521473153E9, 0.0, 2024-05-08 13:00:52.147
246.0, -4963.629539445584, 0.0, 0.0, 0.0, 0.0, 0.0, 0.0, 0.0, 0.002, -0.05, 0.984, 192.0, 0.0, 0.0, 0.0, 0.0, 0.0, 0.0, 0.0, 0.0, 0.0, 1.715162452147329E9, 0.0, 2024-05-08 13:00:52.147
247.0, -4334.785560939975, 0.0, 0.0, 0.0, 0.0, 0.0, 0.0, 0.0, 0.002, -0.05, 0.984, 192.0, 0.0, 0.0, 0.0, 0.0, 0.0, 0.0, 0.0, 0.0, 0.0, 1.7151624521473432E9, 0.0, 2024-05-08 13:00:52.147
248.0, -3973.111983908652, 0.0, 0.0, 0.0, 0.0, 0.0, 0.0, 0.0, 0.002, -0.05, 0.984, 192.0, 0.0, 0.0, 0.0, 0.0, 0.0, 0.0, 0.0, 0.0, 0.0, 1.7151624521473567E9, 0.0, 2024-05-08 13:00:52.147
249.0, -4774.42202263141, 0.0, 0.0, 0.0, 0.0, 0.0, 0.0, 0.0, 0.002, -0.05, 0.984, 192.0, 0.0, 0.0, 0.0, 0.0, 0.0, 0.0, 0.0, 0.0, 0.0, 1.7151624521473725E9, 0.0, 2024-05-08 13:00:52.147
250.0, -6379.634902433741, 0.0, 0.0, 0.0, 0.0, 0.0, 0.0, 0.0, 0.002, -0.05, 0.984, 192.0, 0.0, 0.0, 0.0, 0.0, 0.0, 0.0, 0.0, 0.0, 0.0, 1.7151624521473863E9, 0.0, 2024-05-08 13:00:52.147
251.0, -7420.488586484026, 0.0, 0.0, 0.0, 0.0, 0.0, 0.0, 0.0, 0.006, -0.048, 0.994, 192.0, 0.0, 48.0, 254.0, 128.0, 31.0, 16.0, 0.0, 0.0, 0.0, 1.7151624521474E9, 0.0, 2024-05-08 13:00:52.147
252.0, -7572.7933732024885, 0.0, 0.0, 0.0, 0.0, 0.0, 0.0, 0.0, 0.006, -0.048, 0.994, 192.0, 0.0, 0.0, 0.0, 0.0, 0.0, 0.0, 0.0, 0.0, 0.0, 1.7151624521474147E9, 0.0, 2024-05-08 13:00:52.147
253.0, -7981.29385486768, 0.0, 0.0, 0.0, 0.0, 0.0, 0.0, 0.0, 0.006, -0.048, 0.994, 192.0, 0.0, 0.0, 0.0, 0.0, 0.0, 0.0, 0.0, 0.0, 0.0, 1.7151624521474288E9, 0.0, 2024-05-08 13:00:52.147
