%OpenBCI Raw EXG Data
%Number of channels = 8
%Sample Rate = 250 Hz
%Board = OpenBCI_GUI$BoardCytonSerial
Sample Index, EXG Channel 0, EXG Channel 1, EXG Channel 2, EXG Channel 3, EXG Channel 4, EXG Channel 5, EXG Channel 6, EXG Channel 7, Accel Channel 0, Accel Channel 1, Accel Channel 2, Other, Other, Other, Other, Other, Other, Other, Analog Channel 0, Analog Channel 1, Analog Channel 2, Timestamp, Other, Timestamp (Formatted)
169.0, -1087.0994433283142, 0.0, 0.0, 0.0, 0.0, 0.0, 0.0, 0.0, 0.0, 0.0, 0.0, 192.0, 0.0, 0.0, 0.0, 0.0, 0.0, 0.0, 0.0, 0.0, 0.0, 1.7151621806646588E9, 0.0, 2024-05-08 12:56:20.664
170.0, -1021.854701263273, 0.0, 0.0, 0.0, 0.0, 0.0, 0.0, 0.0, 0.0, 0.0, 0.0, 192.0, 0.0, 0.0, 0.0, 0.0, 0.0, 0.0, 0.0, 0.0, 0.0, 1.7151621806646936E9, 0.0, 2024-05-08 12:56:20.664
171.0, -1989.7522914114347, 0.0, 0.0, 0.0, 0.0, 0.0, 0.0, 0.0, -0.01, -0.058, 0.99, 192.0, 255.0, 176.0, 254.0, 48.0, 30.0, 240.0, 0.0, 0.0, 0.0, 1.7151621806647124E9, 0.0, 2024-05-08 12:56:20.664
172.0, -2552.9044929628963, 0.0, 0.0, 0.0, 0.0, 0.0, 0.0, 0.0, -0.01, -0.058, 0.99, 192.0, 0.0, 0.0, 0.0, 0.0, 0.0, 0.0, 0.0, 0.0, 0.0, 1.7151621806647325E9, 0.0, 2024-05-08 12:56:20.664
173.0, -1986.935971610066, 0.0, 0.0, 0.0, 0.0, 0.0, 0.0, 0.0, -0.01, -0.058, 0.99, 192.0, 0.0, 0.0, 0.0, 0.0, 0.0, 0.0, 0.0, 0.0, 0.0, 1.7151621806647527E9, 0.0, 2024-05-08 12:56:20.664
174.0, -1098.1635568336912, 0.0, 0.0, 0.0, 0.0, 0.0, 0.0, 0.0, -0.01, -0.058, 0.99, 192.0, 0.0, 0.0, 0.0, 0.0, 0.0, 0.0, 0.0, 0.0, 0.0, 1.715162180664791E9, 0.0, 2024-05-08 12:56:20.664
175.0, -998.1171486517369, 0.0, 0.0, 0.0, 0.0, 0.0, 0.0, 0.0, -0.01, -0.058, 0.99, 192.0, 0.0, 0.0, 0.0, 0.0, 0.0, 0.0, 0.0, 0.0, 0.0, 1.7151621806648197E9, 0.0, 2024-05-08 12:56:20.664
176.0, -2002.1351578396748, 0.0, 0.0, 0.0, 0.0, 0.0, 0.0, 0.0, -0.01, -0.058, 0.99, 192.0, 0.0, 0.0, 0.0, 0.0, 0.0, 0.0, 0.0, 0.0, 0.0, 1.71516218066484E9, 0.0, 2024-05-08 12:56:20.664
177.0, -2593.5623161270996, 0.0, 0.0, 0.0, 0.0, 0.0, 0.0, 0.0, -0.01, -0.058, 0.99, 192.0, 0.0, 0.0, 0.0, 0.0, 0.0, 0.0, 0.0, 0.0, 0.0, 1.715162180664858E9, 0.0, 2024-05-08 12:56:20.664
178.0, -2048.805600262356, 0.0, 0.0, 0.0, 0.0, 0.0, 0.0, 0.0, -0.01, -0.058, 0.99, 192.0, 0.0, 0.0, 0.0, 0.0, 0.0, 0.0, 0.0, 0.0, 0.0, 1.7151621806648755E9, 0.0, 2024-05-08 12:56:20.664
179.0, -1265.712233270673, 0.0, 0.0, 0.0, 0.0, 0.0, 0.0, 0.0, -0.01, -0.058, 0.99, 192.0, 0.0, 0.0, 0.0, 0.0, 0.0, 0.0, 0.0, 0.0, 0.0, 1.71516218066494E9, 0.0, 2024-05-08 12:56:20.664
180.0, -1154.7805255389842, 0.0, 0.0, 0.0, 0.0, 0.0, 0.0, 0.0, -0.01, -0.058, 0.99, 192.0, 0.0, 0.0, 0.0, 0.0, 0.0, 0.0, 0.0, 0.0, 0.0, 1.7151621806649592E9, 0.0, 2024-05-08 12:56:20.664
181.0, -2023.838701705778, 0.0, 0.0, 0.0, 0.0, 0.0, 0.0, 0.0, -0.012, -0.062, 0.994, 192.0, 255.0, 160.0, 254.0, 16.0, 31.0, 16.0, 0.0, 0.0, 0.0, 1.7151621806649773E9, 0.0, 2024-05-08 12:56:20.664
182.0, -2507.105768573972, 0.0, 0.0, 0.0, 0.0, 0.0, 0.0, 0.0, -0.012, -0.062, 0.994, 192.0, 0.0, 0.0, 0.0, 0.0, 0.0, 0.0, 0.0, 0.0, 0.0, 1.7151621806649957E9, 0.0, 2024-05-08 12:56:20.664
183.0, -1937.0468779858206, 0.0, 0.0, 0.0, 0.0, 0.0, 0.0, 0.0, -0.012, -0.062, 0.994, 192.0, 0.0, 0.0, 0.0, 0.0, 0.0, 0.0, 0.0, 0.0, 0.0, 1.7151621806650136E9, 0.0, 2024-05-08 12:56:20.665
184.0, -1193.4043399577547, 0.0, 0.0, 0.0, 0.0, 0.0, 0.0, 0.0, -0.012, -0.062, 0.994, 192.0, 0.0, 0.0, 0.0, 0.0, 0.0, 0.0, 0.0, 0.0, 0.0, 1.7151621806650348E9, 0.0, 2024-05-08 12:56:20.665
185.0, -1179.2109822286347, 0.0, 0.0, 0.0, 0.0, 0.0, 0.0, 0.0, -0.012, -0.062, 0.994, 192.0, 0.0, 0.0, 0.0, 0.0, 0.0, 0.0, 0.0, 0.0, 0.0, 1.715162180665053E9, 0.0, 2024-05-08 12:56:20.665
186.0, -2043.3294228708057, 0.0, 0.0, 0.0, 0.0, 0.0, 0.0, 0.0, -0.012, -0.062, 0.994, 192.0, 0.0, 0.0, 0.0, 0.0, 0.0, 0.0, 0.0, 0.0, 0.0, 1.7151621806650724E9, 0.0, 2024-05-08 12:56:20.665
187.0, -2339.4900369036245, 0.0, 0.0, 0.0, 0.0, 0.0, 0.0, 0.0, -0.012, -0.062, 0.994, 192.0, 0.0, 0.0, 0.0, 0.0, 0.0, 0.0, 0.0, 0.0, 0.0, 1.7151621806650896E9, 0.0, 2024-05-08 12:56:20.665
188.0, -1912.61642129617, 0.0, 0.0, 0.0, 0.0, 0.0, 0.0, 0.0, -0.012, -0.062, 0.994, 192.0, 0.0, 0.0, 0.0, 0.0, 0.0, 0.0, 0.0, 0.0, 0.0, 1.7151621806651084E9, 0.0, 2024-05-08 12:56:20.665
189.0, -1312.2038617377118, 0.0, 0.0, 0.0, 0.0, 0.0, 0.0, 0.0, -0.012, -0.062, 0.994, 192.0, 0.0, 0.0, 0.0, 0.0, 0.0, 0.0, 0.0, 0.0, 0.0, 1.7151621806651256E9, 0.0, 2024-05-08 12:56:20.665
190.0, -1163.2518366875454, 0.0, 0.0, 0.0, 0.0, 0.0, 0.0, 0.0, -0.012, -0.062, 0.994, 192.0, 0.0, 0.0, 0.0, 0.0, 0.0, 0.0, 0.0, 0.0, 0.0, 1.7151621806651428E9, 0.0, 2024-05-08 12:56:20.665
191.0, -1998.3800647711832, 0.0, 0.0, 0.0, 0.0, 0.0, 0.0, 0.0, -0.012, -0.06, 0.988, 192.0, 255.0, 160.0, 254.0, 32.0, 30.0, 224.0, 0.0, 0.0, 0.0, 1.7151621806651652E9, 0.0, 2024-05-08 12:56:20.665
192.0, -2514.951230877785, 0.0, 0.0, 0.0, 0.0, 0.0, 0.0, 0.0, -0.012, -0.06, 0.988, 192.0, 0.0, 0.0, 0.0, 0.0, 0.0, 0.0, 0.0, 0.0, 0.0, 1.715162180665184E9, 0.0, 2024-05-08 12:56:20.665
193.0, -2035.0369256778868, 0.0, 0.0, 0.0, 0.0, 0.0, 0.0, 0.0, -0.012, -0.06, 0.988, 192.0, 0.0, 0.0, 0.0, 0.0, 0.0, 0.0, 0.0, 0.0, 0.0, 1.7151621806652017E9, 0.0, 2024-05-08 12:56:20.665
194.0, -1324.899652588326, 0.0, 0.0, 0.0, 0.0, 0.0, 0.0, 0.0, -0.012, -0.06, 0.988, 192.0, 0.0, 0.0, 0.0, 0.0, 0.0, 0.0, 0.0, 0.0, 0.0, 1.7151621806652188E9, 0.0, 2024-05-08 12:56:20.665
195.0, -1386.5010603071523, 0.0, 0.0, 0.0, 0.0, 0.0, 0.0, 0.0, -0.012, -0.06, 0.988, 192.0, 0.0, 0.0, 0.0, 0.0, 0.0, 0.0, 0.0, 0.0, 0.0, 1.715162180665236E9, 0.0, 2024-05-08 12:56:20.665
196.0, -2273.083004126907, 0.0, 0.0, 0.0, 0.0, 0.0, 0.0, 0.0, -0.012, -0.06, 0.988, 192.0, 0.0, 0.0, 0.0, 0.0, 0.0, 0.0, 0.0, 0.0, 0.0, 1.7151621806652691E9, 0.0, 2024-05-08 12:56:20.665
197.0, -2621.9043280964293, 0.0, 0.0, 0.0, 0.0, 0.0, 0.0, 0.0, -0.012, -0.06, 0.988, 192.0, 0.0, 0.0, 0.0, 0.0, 0.0, 0.0, 0.0, 0.0, 0.0, 1.7151621806652863E9, 0.0, 2024-05-08 12:56:20.665
198.0, -2324.0002779960964, 0.0, 0.0, 0.0, 0.0, 0.0, 0.0, 0.0, -0.012, -0.06, 0.988, 192.0, 0.0, 0.0, 0.0, 0.0, 0.0, 0.0, 0.0, 0.0, 0.0, 1.7151621806653056E9, 0.0, 2024-05-08 12:56:20.665
199.0, -1656.8677612385466, 0.0, 0.0, 0.0, 0.0, 0.0, 0.0, 0.0, -0.012, -0.06, 0.988, 192.0, 0.0, 0.0, 0.0, 0.0, 0.0, 0.0, 0.0, 0.0, 0.0, 1.7151621806653228E9, 0.0, 2024-05-08 12:56:20.665
200.0, -1529.1722451653775, 0.0, 0.0, 0.0, 0.0, 0.0, 0.0, 0.0, -0.012, -0.06, 0.988, 192.0, 0.0, 0.0, 0.0, 0.0, 0.0, 0.0, 0.0, 0.0, 0.0, 1.7151621806653404E9, 0.0, 2024-05-08 12:56:20.665
201.0, -2322.5921180954124, 0.0, 0.0, 0.0, 0.0, 0.0, 0.0, 0.0, -0.012, -0.066, 0.986, 192.0, 255.0, 160.0, 253.0, 240.0, 30.0, 208.0, 0.0, 0.0, 0.0, 1.7151621806653576E9, 0.0, 2024-05-08 12:56:20.665
202.0, -2729.1479979929923, 0.0, 0.0, 0.0, 0.0, 0.0, 0.0, 0.0, -0.012, -0.066, 0.986, 192.0, 0.0, 0.0, 0.0, 0.0, 0.0, 0.0, 0.0, 0.0, 0.0, 1.7151621806653757E9, 0.0, 2024-05-08 12:56:20.665
203.0, -2156.6527672592124, 0.0, 0.0, 0.0, 0.0, 0.0, 0.0, 0.0, -0.012, -0.066, 0.986, 192.0, 0.0, 0.0, 0.0, 0.0, 0.0, 0.0, 0.0, 0.0, 0.0, 1.715162180665393E9, 0.0, 2024-05-08 12:56:20.665
204.0, -1456.5961309189954, 0.0, 0.0, 0.0, 0.0, 0.0, 0.0, 0.0, -0.012, -0.066, 0.986, 192.0, 0.0, 0.0, 0.0, 0.0, 0.0, 0.0, 0.0, 0.0, 0.0, 1.7151621806654105E9, 0.0, 2024-05-08 12:56:20.665
205.0, -1314.2602222276, 0.0, 0.0, 0.0, 0.0, 0.0, 0.0, 0.0, -0.012, -0.066, 0.986, 192.0, 0.0, 0.0, 0.0, 0.0, 0.0, 0.0, 0.0, 0.0, 0.0, 1.715162180665429E9, 0.0, 2024-05-08 12:56:20.665
206.0, -2127.8860721452324, 0.0, 0.0, 0.0, 0.0, 0.0, 0.0, 0.0, -0.012, -0.066, 0.986, 192.0, 0.0, 0.0, 0.0, 0.0, 0.0, 0.0, 0.0, 0.0, 0.0, 1.7151621806654465E9, 0.0, 2024-05-08 12:56:20.665
207.0, -2614.7741216151862, 0.0, 0.0, 0.0, 0.0, 0.0, 0.0, 0.0, -0.012, -0.066, 0.986, 192.0, 0.0, 0.0, 0.0, 0.0, 0.0, 0.0, 0.0, 0.0, 0.0, 1.7151621806654637E9, 0.0, 2024-05-08 12:56:20.665
208.0, -2171.8743052332766, 0.0, 0.0, 0.0, 0.0, 0.0, 0.0, 0.0, -0.012, -0.066, 0.986, 192.0, 0.0, 0.0, 0.0, 0.0, 0.0, 0.0, 0.0, 0.0, 0.0, 1.7151621806654816E9, 0.0, 2024-05-08 12:56:20.665
209.0, -1397.3640081124317, 0.0, 0.0, 0.0, 0.0, 0.0, 0.0, 0.0, -0.012, -0.066, 0.986, 192.0, 0.0, 0.0, 0.0, 0.0, 0.0, 0.0, 0.0, 0.0, 0.0, 1.7151621806654985E9, 0.0, 2024-05-08 12:56:20.665
210.0, -1196.041845803481, 0.0, 0.0, 0.0, 0.0, 0.0, 0.0, 0.0, -0.012, -0.066, 0.986, 192.0, 0.0, 0.0, 0.0, 0.0, 0.0, 0.0, 0.0, 0.0, 0.0, 1.7151621806655157E9, 0.0, 2024-05-08 12:56:20.665
211.0, -2111.546946948403, 0.0, 0.0, 0.0, 0.0, 0.0, 0.0, 0.0, -0.01, -0.06, 0.984, 192.0, 255.0, 176.0, 254.0, 32.0, 30.0, 192.0, 0.0, 0.0, 0.0, 1.7151621806655345E9, 0.0, 2024-05-08 12:56:20.665
212.0, -2528.4516845287903, 0.0, 0.0, 0.0, 0.0, 0.0, 0.0, 0.0, -0.01, -0.06, 0.984, 192.0, 0.0, 0.0, 0.0, 0.0, 0.0, 0.0, 0.0, 0.0, 0.0, 1.715162180665554E9, 0.0, 2024-05-08 12:56:20.665
213.0, -1999.1847275715743, 0.0, 0.0, 0.0, 0.0, 0.0, 0.0, 0.0, -0.01, -0.06, 0.984, 192.0, 0.0, 0.0, 0.0, 0.0, 0.0, 0.0, 0.0, 0.0, 0.0, 1.7151621806655717E9, 0.0, 2024-05-08 12:56:20.665
214.0, -1117.9001471877275, 0.0, 0.0, 0.0, 0.0, 0.0, 0.0, 0.0, -0.01, -0.06, 0.984, 192.0, 0.0, 0.0, 0.0, 0.0, 0.0, 0.0, 0.0, 0.0, 0.0, 1.7151621806655965E9, 0.0, 2024-05-08 12:56:20.665
215.0, -830.3896582591127, 0.0, 0.0, 0.0, 0.0, 0.0, 0.0, 0.0, -0.01, -0.06, 0.984, 192.0, 0.0, 0.0, 0.0, 0.0, 0.0, 0.0, 0.0, 0.0, 0.0, 1.7151621806656137E9, 0.0, 2024-05-08 12:56:20.665
216.0, -1678.526601615739, 0.0, 0.0, 0.0, 0.0, 0.0, 0.0, 0.0, -0.01, -0.06, 0.984, 192.0, 0.0, 0.0, 0.0, 0.0, 0.0, 0.0, 0.0, 0.0, 0.0, 1.7151621806656308E9, 0.0, 2024-05-08 12:56:20.665
217.0, -2255.4921812405805, 0.0, 0.0, 0.0, 0.0, 0.0, 0.0, 0.0, -0.01, -0.06, 0.984, 192.0, 0.0, 0.0, 0.0, 0.0, 0.0, 0.0, 0.0, 0.0, 0.0, 1.7151621806656487E9, 0.0, 2024-05-08 12:56:20.665
218.0, -1775.4437655739507, 0.0, 0.0, 0.0, 0.0, 0.0, 0.0, 0.0, -0.01, -0.06, 0.984, 192.0, 0.0, 0.0, 0.0, 0.0, 0.0, 0.0, 0.0, 0.0, 0.0, 1.715162180665666E9, 0.0, 2024-05-08 12:56:20.665
219.0, -911.0794557427712, 0.0, 0.0, 0.0, 0.0, 0.0, 0.0, 0.0, -0.01, -0.06, 0.984, 192.0, 0.0, 0.0, 0.0, 0.0, 0.0, 0.0, 0.0, 0.0, 0.0, 1.715162180665686E9, 0.0, 2024-05-08 12:56:20.665
220.0, -912.1970429655365, 0.0, 0.0, 0.0, 0.0, 0.0, 0.0, 0.0, -0.01, -0.06, 0.984, 192.0, 0.0, 0.0, 0.0, 0.0, 0.0, 0.0, 0.0, 0.0, 0.0, 1.715162180665703E9, 0.0, 2024-05-08 12:56:20.665
221.0, -1765.0502044022328, 0.0, 0.0, 0.0, 0.0, 0.0, 0.0, 0.0, -0.014, -0.062, 1.0, 192.0, 255.0, 144.0, 254.0, 16.0, 31.0, 64.0, 0.0, 0.0, 0.0, 1.7151621806657205E9, 0.0, 2024-05-08 12:56:20.665
222.0, -2233.207492018639, 0.0, 0.0, 0.0, 0.0, 0.0, 0.0, 0.0, -0.014, -0.062, 1.0, 192.0, 0.0, 0.0, 0.0, 0.0, 0.0, 0.0, 0.0, 0.0, 0.0, 1.7151621806657388E9, 0.0, 2024-05-08 12:56:20.665
223.0, -1672.6704445684488, 0.0, 0.0, 0.0, 0.0, 0.0, 0.0, 0.0, -0.014, -0.062, 1.0, 192.0, 0.0, 0.0, 0.0, 0.0, 0.0, 0.0, 0.0, 0.0, 0.0, 1.715162180665758E9, 0.0, 2024-05-08 12:56:20.665
224.0, -928.312650717813, 0.0, 0.0, 0.0, 0.0, 0.0, 0.0, 0.0, -0.014, -0.062, 1.0, 192.0, 0.0, 0.0, 0.0, 0.0, 0.0, 0.0, 0.0, 0.0, 0.0, 1.7151621806657887E9, 0.0, 2024-05-08 12:56:20.665
225.0, -1028.1578931996696, 0.0, 0.0, 0.0, 0.0, 0.0, 0.0, 0.0, -0.014, -0.062, 1.0, 192.0, 0.0, 0.0, 0.0, 0.0, 0.0, 0.0, 0.0, 0.0, 0.0, 1.7151621806658127E9, 0.0, 2024-05-08 12:56:20.665
226.0, -1829.9373185559891, 0.0, 0.0, 0.0, 0.0, 0.0, 0.0, 0.0, -0.014, -0.062, 1.0, 192.0, 0.0, 0.0, 0.0, 0.0, 0.0, 0.0, 0.0, 0.0, 0.0, 1.715162180665841E9, 0.0, 2024-05-08 12:56:20.665
227.0, -2289.3997775792814, 0.0, 0.0, 0.0, 0.0, 0.0, 0.0, 0.0, -0.014, -0.062, 1.0, 192.0, 0.0, 0.0, 0.0, 0.0, 0.0, 0.0, 0.0, 0.0, 0.0, 1.7151621806658592E9, 0.0, 2024-05-08 12:56:20.665
228.0, -1827.009240032344, 0.0, 0.0, 0.0, 0.0, 0.0, 0.0, 0.0, -0.014, -0.062, 1.0, 192.0, 0.0, 0.0, 0.0, 0.0, 0.0, 0.0, 0.0, 0.0, 0.0, 1.7151621806658769E9, 0.0, 2024-05-08 12:56:20.665
229.0, -1082.0255973369597, 0.0, 0.0, 0.0, 0.0, 0.0, 0.0, 0.0, -0.014, -0.062, 1.0, 192.0, 0.0, 0.0, 0.0, 0.0, 0.0, 0.0, 0.0, 0.0, 0.0, 1.715162180665894E9, 0.0, 2024-05-08 12:56:20.665
230.0, -1036.5397973704098, 0.0, 0.0, 0.0, 0.0, 0.0, 0.0, 0.0, -0.014, -0.062, 1.0, 192.0, 0.0, 0.0, 0.0, 0.0, 0.0, 0.0, 0.0, 0.0, 0.0, 1.7151621806659129E9, 0.0, 2024-05-08 12:56:20.665
231.0, -1821.4213039185172, 0.0, 0.0, 0.0, 0.0, 0.0, 0.0, 0.0, -0.012, -0.06, 0.994, 192.0, 255.0, 160.0, 254.0, 32.0, 31.0, 16.0, 0.0, 0.0, 0.0, 1.715162180665944E9, 0.0, 2024-05-08 12:56:20.665
232.0, -2497.2262975247263, 0.0, 0.0, 0.0, 0.0, 0.0, 0.0, 0.0, -0.012, -0.06, 0.994, 192.0, 0.0, 0.0, 0.0, 0.0, 0.0, 0.0, 0.0, 0.0, 0.0, 1.7151621806659622E9, 0.0, 2024-05-08 12:56:20.665
233.0, -2168.409784842704, 0.0, 0.0, 0.0, 0.0, 0.0, 0.0, 0.0, -0.012, -0.06, 0.994, 192.0, 0.0, 0.0, 0.0, 0.0, 0.0, 0.0, 0.0, 0.0, 0.0, 1.715162180665982E9, 0.0, 2024-05-08 12:56:20.665
234.0, -1372.8217927005044, 0.0, 0.0, 0.0, 0.0, 0.0, 0.0, 0.0, -0.012, -0.06, 0.994, 192.0, 0.0, 0.0, 0.0, 0.0, 0.0, 0.0, 0.0, 0.0, 0.0, 1.7151621806659997E9, 0.0, 2024-05-08 12:56:20.665
235.0, -1301.8103005659939, 0.0, 0.0, 0.0, 0.0, 0.0, 0.0, 0.0, -0.012, -0.06, 0.994, 192.0, 0.0, 0.0, 0.0, 0.0, 0.0, 0.0, 0.0, 0.0, 0.0, 1.7151621806660187E9, 0.0, 2024-05-08 12:56:20.666
236.0, -2270.35609130336, 0.0, 0.0, 0.0, 0.0, 0.0, 0.0, 0.0, -0.012, -0.06, 0.994, 192.0, 0.0, 0.0, 0.0, 0.0, 0.0, 0.0, 0.0, 0.0, 0.0, 1.715162180666038E9, 0.0, 2024-05-08 12:56:20.666
237.0, -2732.0760765166374, 0.0, 0.0, 0.0, 0.0, 0.0, 0.0, 0.0, -0.012, -0.06, 0.994, 192.0, 0.0, 0.0, 0.0, 0.0, 0.0, 0.0, 0.0, 0.0, 0.0, 1.7151621806660557E9, 0.0, 2024-05-08 12:56:20.666
238.0, -2251.5806259609017, 0.0, 0.0, 0.0, 0.0, 0.0, 0.0, 0.0, -0.012, -0.06, 0.994, 192.0, 0.0, 0.0, 0.0, 0.0, 0.0, 0.0, 0.0, 0.0, 0.0, 1.7151621806660726E9, 0.0, 2024-05-08 12:56:20.666
239.0, -1437.9771277877246, 0.0, 0.0, 0.0, 0.0, 0.0, 0.0, 0.0, -0.012, -0.06, 0.994, 192.0, 0.0, 0.0, 0.0, 0.0, 0.0, 0.0, 0.0, 0.0, 0.0, 1.7151621806660898E9, 0.0, 2024-05-08 12:56:20.666
240.0, -1371.3912810553647, 0.0, 0.0, 0.0, 0.0, 0.0, 0.0, 0.0, -0.012, -0.06, 0.994, 192.0, 0.0, 0.0, 0.0, 0.0, 0.0, 0.0, 0.0, 0.0, 0.0, 1.715162180666107E9, 0.0, 2024-05-08 12:56:20.666
241.0, -2179.8762297482767, 0.0, 0.0, 0.0, 0.0, 0.0, 0.0, 0.0, -0.012, -0.06, 0.994, 192.0, 255.0, 160.0, 254.0, 32.0, 31.0, 16.0, 0.0, 0.0, 0.0, 1.715162180666124E9, 0.0, 2024-05-08 12:56:20.666
242.0, -2618.484511194767, 0.0, 0.0, 0.0, 0.0, 0.0, 0.0, 0.0, -0.012, -0.06, 0.994, 192.0, 0.0, 0.0, 0.0, 0.0, 0.0, 0.0, 0.0, 0.0, 0.0, 1.7151621806661422E9, 0.0, 2024-05-08 12:56:20.666
243.0, -2169.6614825322013, 0.0, 0.0, 0.0, 0.0, 0.0, 0.0, 0.0, -0.012, -0.06, 0.994, 192.0, 0.0, 0.0, 0.0, 0.0, 0.0, 0.0, 0.0, 0.0, 0.0, 1.7151621806661592E9, 0.0, 2024-05-08 12:56:20.666
244.0, -1352.705222690728, 0.0, 0.0, 0.0, 0.0, 0.0, 0.0, 0.0, -0.012, -0.06, 0.994, 192.0, 0.0, 0.0, 0.0, 0.0, 0.0, 0.0, 0.0, 0.0, 0.0, 1.7151621806661763E9, 0.0, 2024-05-08 12:56:20.666
245.0, -1182.653150874752, 0.0, 0.0, 0.0, 0.0, 0.0, 0.0, 0.0, -0.012, -0.06, 0.994, 192.0, 0.0, 0.0, 0.0, 0.0, 0.0, 0.0, 0.0, 0.0, 0.0, 1.7151621806661935E9, 0.0, 2024-05-08 12:56:20.666
246.0, -1931.168369194075, 0.0, 0.0, 0.0, 0.0, 0.0, 0.0, 0.0, -0.012, -0.06, 0.994, 192.0, 0.0, 0.0, 0.0, 0.0, 0.0, 0.0, 0.0, 0.0, 0.0, 1.7151621806662114E9, 0.0, 2024-05-08 12:56:20.666
247.0, -2282.2919228424935, 0.0, 0.0, 0.0, 0.0, 0.0, 0.0, 0.0, -0.012, -0.06, 0.994, 192.0, 0.0, 0.0, 0.0, 0.0, 0.0, 0.0, 0.0, 0.0, 0.0, 1.7151621806662283E9, 0.0, 2024-05-08 12:56:20.666
248.0, -1763.820858457191, 0.0, 0.0, 0.0, 0.0, 0.0, 0.0, 0.0, -0.012, -0.06, 0.994, 192.0, 0.0, 0.0, 0.0, 0.0, 0.0, 0.0, 0.0, 0.0, 0.0, 1.7151621806662552E9, 0.0, 2024-05-08 12:56:20.666
249.0, -1214.8620146348494, 0.0, 0.0, 0.0, 0.0, 0.0, 0.0, 0.0, -0.012, -0.06, 0.994, 192.0, 0.0, 0.0, 0.0, 0.0, 0.0, 0.0, 0.0, 0.0, 0.0, 1.715162180666273E9, 0.0, 2024-05-08 12:56:20.666
250.0, -1063.0266145499486, 0.0, 0.0, 0.0, 0.0, 0.0, 0.0, 0.0, -0.012, -0.06, 0.994, 192.0, 0.0, 0.0, 0.0, 0.0, 0.0, 0.0, 0.0, 0.0, 0.0, 1.7151621806662903E9, 0.0, 2024-05-08 12:56:20.666
251.0, -1694.7986715792026, 0.0, 0.0, 0.0, 0.0, 0.0, 0.0, 0.0, -0.006, -0.056, 0.99, 192.0, 255.0, 208.0, 254.0, 64.0, 30.0, 240.0, 0.0, 0.0, 0.0, 1.7151621806663077E9, 0.0, 2024-05-08 12:56:20.666
252.0, -2029.739562241979, 0.0, 0.0, 0.0, 0.0, 0.0, 0.0, 0.0, -0.006, -0.056, 0.99, 192.0, 0.0, 0.0, 0.0, 0.0, 0.0, 0.0, 0.0, 0.0, 0.0, 1.7151621806663258E9, 0.0, 2024-05-08 12:56:20.666
253.0, -1704.3875699505295, 0.0, 0.0, 0.0, 0.0, 0.0, 0.0, 0.0, -0.006, -0.056, 0.99, 192.0, 0.0, 0.0, 0.0, 0.0, 0.0, 0.0, 0.0, 0.0, 0.0, 1.7151621806663432E9, 0.0, 2024-05-08 12:56:20.666
254.0, -1031.8906345237058, 0.0, 0.0, 0.0, 0.0, 0.0, 0.0, 0.0, -0.006, -0.056, 0.99, 192.0, 0.0, 0.0, 0.0, 0.0, 0.0, 0.0, 0.0, 0.0, 0.0, 1.7151621806663604E9, 0.0, 2024-05-08 12:56:20.666
255.0, -832.2001495599926, 0.0, 0.0, 0.0, 0.0, 0.0, 0.0, 0.0, -0.006, -0.056, 0.99, 192.0, 0.0, 0.0, 0.0, 0.0, 0.0, 0.0, 0.0, 0.0, 0.0, 1.7151621806663811E9, 0.0, 2024-05-08 12:56:20.666
0.0, -1429.8410928059927, 0.0, 0.0, 0.0, 0.0, 0.0, 0.0, 0.0, -0.006, -0.056, 0.99, 192.0, 0.0, 0.0, 0.0, 0.0, 0.0, 0.0, 0.0, 0.0, 0.0, 1.7151621806663988E9, 0.0, 2024-05-08 12:56:20.666
1.0, -1899.6077060231814, 0.0, 0.0, 0.0, 0.0, 0.0, 0.0, 0.0, -0.006, -0.056, 0.99, 192.0, 0.0, 0.0, 0.0, 0.0, 0.0, 0.0, 0.0, 0.0, 0.0, 1.7151621806664157E9, 0.0, 2024-05-08 12:56:20.666
2.0, -1627.922252168924, 0.0, 0.0, 0.0, 0.0, 0.0, 0.0, 0.0, -0.006, -0.056, 0.99, 192.0, 0.0, 0.0, 0.0, 0.0, 0.0, 0.0, 0.0, 0.0, 0.0, 1.7151621806664329E9, 0.0, 2024-05-08 12:56:20.666
3.0, -870.8686674676737, 0.0, 0.0, 0.0, 0.0, 0.0, 0.0, 0.0, -0.006, -0.056, 0.99, 192.0, 0.0, 0.0, 0.0, 0.0, 0.0, 0.0, 0.0, 0.0, 0.0, 1.7151621806664498E9, 0.0, 2024-05-08 12:56:20.666
4.0, -691.3171042581921, 0.0, 0.0, 0.0, 0.0, 0.0, 0.0, 0.0, -0.006, -0.056, 0.99, 192.0, 0.0, 0.0, 0.0, 0.0, 0.0, 0.0, 0.0, 0.0, 0.0, 1.7151621806664684E9, 0.0, 2024-05-08 12:56:20.666
5.0, -1253.4634773091648, 0.0, 0.0, 0.0, 0.0, 0.0, 0.0, 0.0, -0.008, -0.06, 0.992, 192.0, 255.0, 192.0, 254.0, 32.0, 31.0, 0.0, 0.0, 0.0, 0.0, 1.7151621806664872E9, 0.0, 2024-05-08 12:56:20.666
6.0, -1720.659639913993, 0.0, 0.0, 0.0, 0.0, 0.0, 0.0, 0.0, -0.008, -0.06, 0.992, 192.0, 0.0, 0.0, 0.0, 0.0, 0.0, 0.0, 0.0, 0.0, 0.0, 1.7151621806665049E9, 0.0, 2024-05-08 12:56:20.666
7.0, -1405.9470779832695, 0.0, 0.0, 0.0, 0.0, 0.0, 0.0, 0.0, -0.008, -0.06, 0.992, 192.0, 0.0, 0.0, 0.0, 0.0, 0.0, 0.0, 0.0, 0.0, 0.0, 1.7151621806665215E9, 0.0, 2024-05-08 12:56:20.666
8.0, -717.5804039931779, 0.0, 0.0, 0.0, 0.0, 0.0, 0.0, 0.0, -0.008, -0.06, 0.992, 192.0, 0.0, 0.0, 0.0, 0.0, 0.0, 0.0, 0.0, 0.0, 0.0, 1.7151621806665387E9, 0.0, 2024-05-08 12:56:20.666
9.0, -541.3145472186264, 0.0, 0.0, 0.0, 0.0, 0.0, 0.0, 0.0, -0.008, -0.06, 0.992, 192.0, 0.0, 0.0, 0.0, 0.0, 0.0, 0.0, 0.0, 0.0, 0.0, 1.7151621806665556E9, 0.0, 2024-05-08 12:56:20.666
10.0, -1193.7396161245842, 0.0, 0.0, 0.0, 0.0, 0.0, 0.0, 0.0, -0.008, -0.06, 0.992, 192.0, 0.0, 0.0, 0.0, 0.0, 0.0, 0.0, 0.0, 0.0, 0.0, 1.7151621806665852E9, 0.0, 2024-05-08 12:56:20.666
11.0, -1630.8503306925693, 0.0, 0.0, 0.0, 0.0, 0.0, 0.0, 0.0, -0.008, -0.06, 0.992, 192.0, 0.0, 0.0, 0.0, 0.0, 0.0, 0.0, 0.0, 0.0, 0.0, 1.7151621806666028E9, 0.0, 2024-05-08 12:56:20.666
12.0, -1219.198253059179, 0.0, 0.0, 0.0, 0.0, 0.0, 0.0, 0.0, -0.008, -0.06, 0.992, 192.0, 0.0, 0.0, 0.0, 0.0, 0.0, 0.0, 0.0, 0.0, 0.0, 1.71516218066662E9, 0.0, 2024-05-08 12:56:20.666
13.0, -540.0181460402187, 0.0, 0.0, 0.0, 0.0, 0.0, 0.0, 0.0, -0.008, -0.06, 0.992, 192.0, 0.0, 0.0, 0.0, 0.0, 0.0, 0.0, 0.0, 0.0, 0.0, 1.7151621806666367E9, 0.0, 2024-05-08 12:56:20.666
14.0, -451.6617002083898, 0.0, 0.0, 0.0, 0.0, 0.0, 0.0, 0.0, -0.008, -0.06, 0.992, 192.0, 0.0, 0.0, 0.0, 0.0, 0.0, 0.0, 0.0, 0.0, 0.0, 1.7151621806666536E9, 0.0, 2024-05-08 12:56:20.666
15.0, -1103.9526586476159, 0.0, 0.0, 0.0, 0.0, 0.0, 0.0, 0.0, -0.01, -0.058, 0.996, 192.0, 255.0, 176.0, 254.0, 48.0, 31.0, 32.0, 0.0, 0.0, 0.0, 1.7151621806666706E9, 0.0, 2024-05-08 12:56:20.666
16.0, -1517.3705240929753, 0.0, 0.0, 0.0, 0.0, 0.0, 0.0, 0.0, -0.01, -0.058, 0.996, 192.0, 0.0, 0.0, 0.0, 0.0, 0.0, 0.0, 0.0, 0.0, 0.0, 1.7151621806666884E9, 0.0, 2024-05-08 12:56:20.666
17.0, -1121.208205367113, 0.0, 0.0, 0.0, 0.0, 0.0, 0.0, 0.0, -0.01, -0.058, 0.996, 192.0, 0.0, 0.0, 0.0, 0.0, 0.0, 0.0, 0.0, 0.0, 0.0, 1.7151621806667075E9, 0.0, 2024-05-08 12:56:20.666
18.0, -496.2310786522721, 0.0, 0.0, 0.0, 0.0, 0.0, 0.0, 0.0, -0.01, -0.058, 0.996, 192.0, 0.0, 0.0, 0.0, 0.0, 0.0, 0.0, 0.0, 0.0, 0.0, 1.7151621806667252E9, 0.0, 2024-05-08 12:56:20.666
19.0, -372.31300739204977, 0.0, 0.0, 0.0, 0.0, 0.0, 0.0, 0.0, -0.01, -0.058, 0.996, 192.0, 0.0, 0.0, 0.0, 0.0, 0.0, 0.0, 0.0, 0.0, 0.0, 1.715162180666742E9, 0.0, 2024-05-08 12:56:20.666
20.0, -1006.9684394560385, 0.0, 0.0, 0.0, 0.0, 0.0, 0.0, 0.0, -0.01, -0.058, 0.996, 192.0, 0.0, 0.0, 0.0, 0.0, 0.0, 0.0, 0.0, 0.0, 0.0, 1.7151621806667612E9, 0.0, 2024-05-08 12:56:20.666
21.0, -1474.5669334610623, 0.0, 0.0, 0.0, 0.0, 0.0, 0.0, 0.0, -0.01, -0.058, 0.996, 192.0, 0.0, 0.0, 0.0, 0.0, 0.0, 0.0, 0.0, 0.0, 0.0, 1.7151621806667793E9, 0.0, 2024-05-08 12:56:20.666
22.0, -1189.3363224668888, 0.0, 0.0, 0.0, 0.0, 0.0, 0.0, 0.0, -0.01, -0.058, 0.996, 192.0, 0.0, 0.0, 0.0, 0.0, 0.0, 0.0, 0.0, 0.0, 0.0, 1.7151621806668072E9, 0.0, 2024-05-08 12:56:20.666
23.0, -440.35171751400446, 0.0, 0.0, 0.0, 0.0, 0.0, 0.0, 0.0, -0.01, -0.058, 0.996, 192.0, 0.0, 0.0, 0.0, 0.0, 0.0, 0.0, 0.0, 0.0, 0.0, 1.71516218066683E9, 0.0, 2024-05-08 12:56:20.666
24.0, -316.09837008695246, 0.0, 0.0, 0.0, 0.0, 0.0, 0.0, 0.0, -0.01, -0.058, 0.996, 192.0, 0.0, 0.0, 0.0, 0.0, 0.0, 0.0, 0.0, 0.0, 0.0, 1.71516218066686E9, 0.0, 2024-05-08 12:56:20.666
25.0, -1031.10832346777, 0.0, 0.0, 0.0, 0.0, 0.0, 0.0, 0.0, -0.016, -0.058, 0.996, 192.0, 255.0, 128.0, 254.0, 48.0, 31.0, 32.0, 0.0, 0.0, 0.0, 1.7151621806668825E9, 0.0, 2024-05-08 12:56:20.666
26.0, -1467.8167066355595, 0.0, 0.0, 0.0, 0.0, 0.0, 0.0, 0.0, -0.016, -0.058, 0.996, 192.0, 0.0, 0.0, 0.0, 0.0, 0.0, 0.0, 0.0, 0.0, 0.0, 1.7151621806669006E9, 0.0, 2024-05-08 12:56:20.666
27.0, -1119.040086154948, 0.0, 0.0, 0.0, 0.0, 0.0, 0.0, 0.0, -0.016, -0.058, 0.996, 192.0, 0.0, 0.0, 0.0, 0.0, 0.0, 0.0, 0.0, 0.0, 0.0, 1.7151621806670446E9, 0.0, 2024-05-08 12:56:20.667
28.0, -479.91430519989797, 0.0, 0.0, 0.0, 0.0, 0.0, 0.0, 0.0, -0.016, -0.058, 0.996, 192.0, 0.0, 0.0, 0.0, 0.0, 0.0, 0.0, 0.0, 0.0, 0.0, 1.7151621806670623E9, 0.0, 2024-05-08 12:56:20.667
29.0, -352.0176234266309, 0.0, 0.0, 0.0, 0.0, 0.0, 0.0, 0.0, -0.016, -0.058, 0.996, 192.0, 0.0, 0.0, 0.0, 0.0, 0.0, 0.0, 0.0, 0.0, 0.0, 1.7151621806670794E9, 0.0, 2024-05-08 12:56:20.667
30.0, -1021.7205907965412, 0.0, 0.0, 0.0, 0.0, 0.0, 0.0, 0.0, -0.016, -0.058, 0.996, 192.0, 0.0, 0.0, 0.0, 0.0, 0.0, 0.0, 0.0, 0.0, 0.0, 1.7151621806670983E9, 0.0, 2024-05-08 12:56:20.667
31.0, -1419.7604560566492, 0.0, 0.0, 0.0, 0.0, 0.0, 0.0, 0.0, -0.016, -0.058, 0.996, 192.0, 0.0, 0.0, 0.0, 0.0, 0.0, 0.0, 0.0, 0.0, 0.0, 1.7151621806671157E9, 0.0, 2024-05-08 12:56:20.667
32.0, -1197.5617644264419, 0.0, 0.0, 0.0, 0.0, 0.0, 0.0, 0.0, -0.016, -0.058, 0.996, 192.0, 0.0, 0.0, 0.0, 0.0, 0.0, 0.0, 0.0, 0.0, 0.0, 1.7151621806671329E9, 0.0, 2024-05-08 12:56:20.667
33.0, -520.8179975531099, 0.0, 0.0, 0.0, 0.0, 0.0, 0.0, 0.0, -0.016, -0.058, 0.996, 192.0, 0.0, 0.0, 0.0, 0.0, 0.0, 0.0, 0.0, 0.0, 0.0, 1.7151621806671503E9, 0.0, 2024-05-08 12:56:20.667
34.0, -316.14307357586307, 0.0, 0.0, 0.0, 0.0, 0.0, 0.0, 0.0, -0.016, -0.058, 0.996, 192.0, 0.0, 0.0, 0.0, 0.0, 0.0, 0.0, 0.0, 0.0, 0.0, 1.7151621806671677E9, 0.0, 2024-05-08 12:56:20.667
35.0, -976.212439085536, 0.0, 0.0, 0.0, 0.0, 0.0, 0.0, 0.0, -0.012, -0.054, 0.994, 192.0, 255.0, 160.0, 254.0, 80.0, 31.0, 16.0, 0.0, 0.0, 0.0, 1.7151621806671848E9, 0.0, 2024-05-08 12:56:20.667
36.0, -1477.1597358178778, 0.0, 0.0, 0.0, 0.0, 0.0, 0.0, 0.0, -0.012, -0.054, 0.994, 192.0, 0.0, 0.0, 0.0, 0.0, 0.0, 0.0, 0.0, 0.0, 0.0, 1.7151621806672056E9, 0.0, 2024-05-08 12:56:20.667
0.0, 0.0, 0.0, 0.0, 0.0, 0.0, 0.0, 0.0, 0.0, -0.008, -0.05, 0.992, 192.0, 255.0, 192.0, 254.0, 112.0, 31.0, 0.0, 0.0, 0.0, 0.0, 1.715162180758706E9, 0.0, 2024-05-08 12:56:20.758
1.0, -492.61009605051237, 0.0, 0.0, 0.0, 0.0, 0.0, 0.0, 0.0, -0.008, -0.05, 0.992, 192.0, 0.0, 0.0, 0.0, 0.0, 0.0, 0.0, 0.0, 0.0, 0.0, 1.7151621812426395E9, 0.0, 2024-05-08 12:56:21.242
2.0, -366.434498600304, 0.0, 0.0, 0.0, 0.0, 0.0, 0.0, 0.0, -0.008, -0.05, 0.992, 192.0, 0.0, 0.0, 0.0, 0.0, 0.0, 0.0, 0.0, 0.0, 0.0, 1.715162181242704E9, 0.0, 2024-05-08 12:56:21.242
3.0, -176.46702247464927, 0.0, 0.0, 0.0, 0.0, 0.0, 0.0, 0.0, -0.008, -0.05, 0.992, 192.0, 0.0, 0.0, 0.0, 0.0, 0.0, 0.0, 0.0, 0.0, 0.0, 1.715162181242731E9, 0.0, 2024-05-08 12:56:21.242
4.0, 206.57482225594788, 0.0, 0.0, 0.0, 0.0, 0.0, 0.0, 0.0, -0.008, -0.05, 0.992, 192.0, 0.0, 0.0, 0.0, 0.0, 0.0, 0.0, 0.0, 0.0, 0.0, 1.7151621812427514E9, 0.0, 2024-05-08 12:56:21.242
5.0, 662.4386504219354, 0.0, 0.0, 0.0, 0.0, 0.0, 0.0, 0.0, -0.008, -0.05, 0.992, 192.0, 0.0, 0.0, 0.0, 0.0, 0.0, 0.0, 0.0, 0.0, 0.0, 1.715162181242772E9, 0.0, 2024-05-08 12:56:21.242
6.0, 1034.4834368805214, 0.0, 0.0, 0.0, 0.0, 0.0, 0.0, 0.0, -0.008, -0.05, 0.992, 192.0, 0.0, 0.0, 0.0, 0.0, 0.0, 0.0, 0.0, 0.0, 0.0, 1.715162181242795E9, 0.0, 2024-05-08 12:56:21.242
7.0, 1253.4411255647094, 0.0, 0.0, 0.0, 0.0, 0.0, 0.0, 0.0, -0.008, -0.05, 0.992, 192.0, 0.0, 0.0, 0.0, 0.0, 0.0, 0.0, 0.0, 0.0, 0.0, 1.7151621812428143E9, 0.0, 2024-05-08 12:56:21.242
8.0, 1543.4550098723187, 0.0, 0.0, 0.0, 0.0, 0.0, 0.0, 0.0, -0.008, -0.05, 0.992, 192.0, 0.0, 0.0, 254.0, 96.0, 30.0, 224.0, 0.0, 0.0, 0.0, 1.7151621812428975E9, 0.0, 2024-05-08 12:56:21.242
9.0, 2000.905811894633, 0.0, 0.0, 0.0, 0.0, 0.0, 0.0, 0.0, -0.008, -0.05, 0.992, 192.0, 0.0, 0.0, 0.0, 0.0, 0.0, 0.0, 0.0, 0.0, 0.0, 1.715162181242916E9, 0.0, 2024-05-08 12:56:21.242
10.0, 2498.679160914321, 0.0, 0.0, 0.0, 0.0, 0.0, 0.0, 0.0, -0.008, -0.05, 0.992, 192.0, 0.0, 0.0, 0.0, 0.0, 0.0, 0.0, 0.0, 0.0, 0.0, 1.715162181242931E9, 0.0, 2024-05-08 12:56:21.242
11.0, 2817.638554291553, 0.0, 0.0, 0.0, 0.0, 0.0, 0.0, 0.0, -0.008, -0.05, 0.992, 192.0, 0.0, 0.0, 0.0, 0.0, 0.0, 0.0, 0.0, 0.0, 0.0, 1.7151621812429447E9, 0.0, 2024-05-08 12:56:21.242
12.0, 2988.5176406523756, 0.0, 0.0, 0.0, 0.0, 0.0, 0.0, 0.0, -0.008, -0.05, 0.992, 192.0, 0.0, 0.0, 0.0, 0.0, 0.0, 0.0, 0.0, 0.0, 0.0, 1.7151621812429612E9, 0.0, 2024-05-08 12:56:21.242
13.0, 3252.6705566251944, 0.0, 0.0, 0.0, 0.0, 0.0, 0.0, 0.0, -0.008, -0.05, 0.992, 192.0, 0.0, 0.0, 0.0, 0.0, 0.0, 0.0, 0.0, 0.0, 0.0, 1.7151621812429752E9, 0.0, 2024-05-08 12:56:21.242
14.0, 3681.600532722537, 0.0, 0.0, 0.0, 0.0, 0.0, 0.0, 0.0, -0.008, -0.05, 0.992, 192.0, 0.0, 0.0, 0.0, 0.0, 0.0, 0.0, 0.0, 0.0, 0.0, 1.7151621812429888E9, 0.0, 2024-05-08 12:56:21.242
15.0, 4136.078552732295, 0.0, 0.0, 0.0, 0.0, 0.0, 0.0, 0.0, -0.008, -0.05, 0.992, 192.0, 0.0, 0.0, 0.0, 0.0, 0.0, 0.0, 0.0, 0.0, 0.0, 1.715162181243003E9, 0.0, 2024-05-08 12:56:21.243
16.0, 4467.4655160266775, 0.0, 0.0, 0.0, 0.0, 0.0, 0.0, 0.0, -0.008, -0.05, 0.992, 192.0, 0.0, 0.0, 0.0, 0.0, 0.0, 0.0, 0.0, 0.0, 0.0, 1.7151621812430165E9, 0.0, 2024-05-08 12:56:21.243
17.0, 4645.117180957458, 0.0, 0.0, 0.0, 0.0, 0.0, 0.0, 0.0, -0.008, -0.05, 0.992, 192.0, 0.0, 0.0, 0.0, 0.0, 0.0, 0.0, 0.0, 0.0, 0.0, 1.7151621812430303E9, 0.0, 2024-05-08 12:56:21.243
18.0, 4873.641416268518, 0.0, 0.0, 0.0, 0.0, 0.0, 0.0, 0.0, -0.008, -0.05, 0.992, 192.0, 0.0, 0.0, 254.0, 96.0, 31.0, 0.0, 0.0, 0.0, 0.0, 1.715162181243044E9, 0.0, 2024-05-08 12:56:21.243
19.0, 5277.045700197899, 0.0, 0.0, 0.0, 0.0, 0.0, 0.0, 0.0, -0.008, -0.05, 0.992, 192.0, 0.0, 0.0, 0.0, 0.0, 0.0, 0.0, 0.0, 0.0, 0.0, 1.7151621812430599E9, 0.0, 2024-05-08 12:56:21.243
20.0, 5765.543075268635, 0.0, 0.0, 0.0, 0.0, 0.0, 0.0, 0.0, -0.008, -0.05, 0.992, 192.0, 0.0, 0.0, 0.0, 0.0, 0.0, 0.0, 0.0, 0.0, 0.0, 1.7151621812430737E9, 0.0, 2024-05-08 12:56:21.243
21.0, 6162.040670161327, 0.0, 0.0, 0.0, 0.0, 0.0, 0.0, 0.0, -0.008, -0.05, 0.992, 192.0, 0.0, 0.0, 0.0, 0.0, 0.0, 0.0, 0.0, 0.0, 0.0, 1.7151621812430873E9, 0.0, 2024-05-08 12:56:21.243
22.0, 6482.162354250236, 0.0, 0.0, 0.0, 0.0, 0.0, 0.0, 0.0, -0.008, -0.05, 0.992, 192.0, 0.0, 0.0, 0.0, 0.0, 0.0, 0.0, 0.0, 0.0, 0.0, 1.715162181243101E9, 0.0, 2024-05-08 12:56:21.243
23.0, 6938.652031260972, 0.0, 0.0, 0.0, 0.0, 0.0, 0.0, 0.0, -0.008, -0.05, 0.992, 192.0, 0.0, 0.0, 0.0, 0.0, 0.0, 0.0, 0.0, 0.0, 0.0, 1.7151621812431147E9, 0.0, 2024-05-08 12:56:21.243
24.0, 7616.669847568256, 0.0, 0.0, 0.0, 0.0, 0.0, 0.0, 0.0, -0.008, -0.05, 0.992, 192.0, 0.0, 0.0, 0.0, 0.0, 0.0, 0.0, 0.0, 0.0, 0.0, 1.7151621812431283E9, 0.0, 2024-05-08 12:56:21.243
25.0, 8393.728243557005, 0.0, 0.0, 0.0, 0.0, 0.0, 0.0, 0.0, -0.008, -0.05, 0.992, 192.0, 0.0, 0.0, 0.0, 0.0, 0.0, 0.0, 0.0, 0.0, 0.0, 1.7151621812431571E9, 0.0, 2024-05-08 12:56:21.243
26.0, 9030.350629133061, 0.0, 0.0, 0.0, 0.0, 0.0, 0.0, 0.0, -0.008, -0.05, 0.992, 192.0, 0.0, 0.0, 0.0, 0.0, 0.0, 0.0, 0.0, 0.0, 0.0, 1.715162181243172E9, 0.0, 2024-05-08 12:56:21.243
27.0, 9511.963666911563, 0.0, 0.0, 0.0, 0.0, 0.0, 0.0, 0.0, -0.008, -0.05, 0.992, 192.0, 0.0, 0.0, 0.0, 0.0, 0.0, 0.0, 0.0, 0.0, 0.0, 1.7151621812431877E9, 0.0, 2024-05-08 12:56:21.243
28.0, 9975.762364359185, 0.0, 0.0, 0.0, 0.0, 0.0, 0.0, 0.0, -0.002, -0.05, 0.986, 192.0, 255.0, 240.0, 254.0, 112.0, 30.0, 208.0, 0.0, 0.0, 0.0, 1.715162181243202E9, 0.0, 2024-05-08 12:56:21.243
29.0, 10522.329571524808, 0.0, 0.0, 0.0, 0.0, 0.0, 0.0, 0.0, -0.002, -0.05, 0.986, 192.0, 0.0, 0.0, 0.0, 0.0, 0.0, 0.0, 0.0, 0.0, 0.0, 1.7151621812432165E9, 0.0, 2024-05-08 12:56:21.243
30.0, 11039.571289965068, 0.0, 0.0, 0.0, 0.0, 0.0, 0.0, 0.0, -0.002, -0.05, 0.986, 192.0, 0.0, 0.0, 0.0, 0.0, 0.0, 0.0, 0.0, 0.0, 0.0, 1.71516218124323E9, 0.0, 2024-05-08 12:56:21.243
31.0, 11362.174017688516, 0.0, 0.0, 0.0, 0.0, 0.0, 0.0, 0.0, -0.002, -0.05, 0.986, 192.0, 0.0, 0.0, 0.0, 0.0, 0.0, 0.0, 0.0, 0.0, 0.0, 1.715162181243244E9, 0.0, 2024-05-08 12:56:21.243
32.0, 11464.276786360359, 0.0, 0.0, 0.0, 0.0, 0.0, 0.0, 0.0, -0.002, -0.05, 0.986, 192.0, 0.0, 0.0, 0.0, 0.0, 0.0, 0.0, 0.0, 0.0, 0.0, 1.7151621812432592E9, 0.0, 2024-05-08 12:56:21.243
33.0, 11530.5720604148, 0.0, 0.0, 0.0, 0.0, 0.0, 0.0, 0.0, -0.002, -0.05, 0.986, 192.0, 0.0, 0.0, 0.0, 0.0, 0.0, 0.0, 0.0, 0.0, 0.0, 1.7151621812432728E9, 0.0, 2024-05-08 12:56:21.243
34.0, 11713.632847503764, 0.0, 0.0, 0.0, 0.0, 0.0, 0.0, 0.0, -0.002, -0.05, 0.986, 192.0, 0.0, 0.0, 0.0, 0.0, 0.0, 0.0, 0.0, 0.0, 0.0, 1.7151621812432864E9, 0.0, 2024-05-08 12:56:21.243
35.0, 11895.665454347785, 0.0, 0.0, 0.0, 0.0, 0.0, 0.0, 0.0, -0.002, -0.05, 0.986, 192.0, 0.0, 0.0, 0.0, 0.0, 0.0, 0.0, 0.0, 0.0, 0.0, 1.7151621812433E9, 0.0, 2024-05-08 12:56:21.243
36.0, 11970.119115128413, 0.0, 0.0, 0.0, 0.0, 0.0, 0.0, 0.0, -0.002, -0.05, 0.986, 192.0, 0.0, 0.0, 0.0, 0.0, 0.0, 0.0, 0.0, 0.0, 0.0, 1.715162181243314E9, 0.0, 2024-05-08 12:56:21.243
37.0, 11899.867582305382, 0.0, 0.0, 0.0, 0.0, 0.0, 0.0, 0.0, -0.002, -0.05, 0.986, 192.0, 0.0, 0.0, 0.0, 0.0, 0.0, 0.0, 0.0, 0.0, 0.0, 1.7151621812433274E9, 0.0, 2024-05-08 12:56:21.243
38.0, 11801.363444490844, 0.0, 0.0, 0.0, 0.0, 0.0, 0.0, 0.0, -0.004, -0.048, 0.988, 192.0, 255.0, 224.0, 254.0, 128.0, 30.0, 224.0, 0.0, 0.0, 0.0, 1.7151621812433429E9, 0.0, 2024-05-08 12:56:21.243
39.0, 11810.2370870396, 0.0, 0.0, 0.0, 0.0, 0.0, 0.0, 0.0, -0.004, -0.048, 0.988, 192.0, 0.0, 0.0, 0.0, 0.0, 0.0, 0.0, 0.0, 0.0, 0.0, 1.7151621812433572E9, 0.0, 2024-05-08 12:56:21.243
40.0, 11899.375843927366, 0.0, 0.0, 0.0, 0.0, 0.0, 0.0, 0.0, -0.004, -0.048, 0.988, 192.0, 0.0, 0.0, 0.0, 0.0, 0.0, 0.0, 0.0, 0.0, 0.0, 1.715162181243371E9, 0.0, 2024-05-08 12:56:21.243
41.0, 11835.762779207562, 0.0, 0.0, 0.0, 0.0, 0.0, 0.0, 0.0, -0.004, -0.048, 0.988, 192.0, 0.0, 0.0, 0.0, 0.0, 0.0, 0.0, 0.0, 0.0, 0.0, 1.7151621812433846E9, 0.0, 2024-05-08 12:56:21.243
42.0, 11576.951930159561, 0.0, 0.0, 0.0, 0.0, 0.0, 0.0, 0.0, -0.004, -0.048, 0.988, 192.0, 0.0, 0.0, 0.0, 0.0, 0.0, 0.0, 0.0, 0.0, 0.0, 1.715162181243398E9, 0.0, 2024-05-08 12:56:21.243
43.0, 11316.844679933152, 0.0, 0.0, 0.0, 0.0, 0.0, 0.0, 0.0, -0.004, -0.048, 0.988, 192.0, 0.0, 0.0, 0.0, 0.0, 0.0, 0.0, 0.0, 0.0, 0.0, 1.7151621812434204E9, 0.0, 2024-05-08 12:56:21.243
44.0, 11151.709991897344, 0.0, 0.0, 0.0, 0.0, 0.0, 0.0, 0.0, -0.004, -0.048, 0.988, 192.0, 0.0, 0.0, 0.0, 0.0, 0.0, 0.0, 0.0, 0.0, 0.0, 1.7151621812434342E9, 0.0, 2024-05-08 12:56:21.243
45.0, 11013.956190819286, 0.0, 0.0, 0.0, 0.0, 0.0, 0.0, 0.0, -0.004, -0.048, 0.988, 192.0, 0.0, 0.0, 0.0, 0.0, 0.0, 0.0, 0.0, 0.0, 0.0, 1.7151621812434497E9, 0.0, 2024-05-08 12:56:21.243
46.0, 10707.446719103662, 0.0, 0.0, 0.0, 0.0, 0.0, 0.0, 0.0, -0.004, -0.048, 0.988, 192.0, 0.0, 0.0, 0.0, 0.0, 0.0, 0.0, 0.0, 0.0, 0.0, 1.7151621812434633E9, 0.0, 2024-05-08 12:56:21.243
47.0, 10222.749140590327, 0.0, 0.0, 0.0, 0.0, 0.0, 0.0, 0.0, -0.004, -0.048, 0.988, 192.0, 0.0, 0.0, 0.0, 0.0, 0.0, 0.0, 0.0, 0.0, 0.0, 1.715162181243477E9, 0.0, 2024-05-08 12:56:21.243
48.0, 9739.88440512233, 0.0, 0.0, 0.0, 0.0, 0.0, 0.0, 0.0, -0.004, -0.048, 0.99, 192.0, 255.0, 224.0, 254.0, 128.0, 30.0, 240.0, 0.0, 0.0, 0.0, 1.7151621812434907E9, 0.0, 2024-05-08 12:56:21.243
49.0, 9339.475254949959, 0.0, 0.0, 0.0, 0.0, 0.0, 0.0, 0.0, -0.004, -0.048, 0.99, 192.0, 0.0, 0.0, 0.0, 0.0, 0.0, 0.0, 0.0, 0.0, 0.0, 1.7151621812435055E9, 0.0, 2024-05-08 12:56:21.243
50.0, 8953.281814251162, 0.0, 0.0, 0.0, 0.0, 0.0, 0.0, 0.0, -0.004, -0.048, 0.99, 192.0, 0.0, 0.0, 0.0, 0.0, 0.0, 0.0, 0.0, 0.0, 0.0, 1.7151621812435193E9, 0.0, 2024-05-08 12:56:21.243
51.0, 8449.026459339435, 0.0, 0.0, 0.0, 0.0, 0.0, 0.0, 0.0, -0.004, -0.048, 0.99, 192.0, 0.0, 0.0, 0.0, 0.0, 0.0, 0.0, 0.0, 0.0, 0.0, 1.715162181243555E9, 0.0, 2024-05-08 12:56:21.243
52.0, 7850.536149804134, 0.0, 0.0, 0.0, 0.0, 0.0, 0.0, 0.0, -0.004, -0.048, 0.99, 192.0, 0.0, 0.0, 0.0, 0.0, 0.0, 0.0, 0.0, 0.0, 0.0, 1.7151621812435708E9, 0.0, 2024-05-08 12:56:21.243
53.0, 7201.866173966668, 0.0, 0.0, 0.0, 0.0, 0.0, 0.0, 0.0, -0.004, -0.048, 0.99, 192.0, 0.0, 0.0, 0.0, 0.0, 0.0, 0.0, 0.0, 0.0, 0.0, 1.7151621812435849E9, 0.0, 2024-05-08 12:56:21.243
54.0, 6712.944115751281, 0.0, 0.0, 0.0, 0.0, 0.0, 0.0, 0.0, -0.004, -0.048, 0.99, 192.0, 0.0, 0.0, 0.0, 0.0, 0.0, 0.0, 0.0, 0.0, 0.0, 1.7151621812435987E9, 0.0, 2024-05-08 12:56:21.243
55.0, 6291.636084513198, 0.0, 0.0, 0.0, 0.0, 0.0, 0.0, 0.0, -0.004, -0.048, 0.99, 192.0, 0.0, 0.0, 0.0, 0.0, 0.0, 0.0, 0.0, 0.0, 0.0, 1.7151621812436123E9, 0.0, 2024-05-08 12:56:21.243
56.0, 5781.077537665074, 0.0, 0.0, 0.0, 0.0, 0.0, 0.0, 0.0, -0.004, -0.048, 0.99, 192.0, 0.0, 0.0, 0.0, 0.0, 0.0, 0.0, 0.0, 0.0, 0.0, 1.715162181243626E9, 0.0, 2024-05-08 12:56:21.243
57.0, 5162.716527309004, 0.0, 0.0, 0.0, 0.0, 0.0, 0.0, 0.0, -0.004, -0.048, 0.99, 192.0, 0.0, 0.0, 0.0, 0.0, 0.0, 0.0, 0.0, 0.0, 0.0, 1.7151621812436397E9, 0.0, 2024-05-08 12:56:21.243
58.0, 4587.76260468514, 0.0, 0.0, 0.0, 0.0, 0.0, 0.0, 0.0, -0.002, -0.052000000000000005, 0.986, 192.0, 255.0, 240.0, 254.0, 96.0, 30.0, 208.0, 0.0, 0.0, 0.0, 1.7151621812436554E9, 0.0, 2024-05-08 12:56:21.243
59.0, 4147.500294148957, 0.0, 0.0, 0.0, 0.0, 0.0, 0.0, 0.0, -0.002, -0.052000000000000005, 0.986, 192.0, 0.0, 0.0, 0.0, 0.0, 0.0, 0.0, 0.0, 0.0, 0.0, 1.7151621812436697E9, 0.0, 2024-05-08 12:56:21.243
60.0, 3791.2805427647286, 0.0, 0.0, 0.0, 0.0, 0.0, 0.0, 0.0, -0.002, -0.052000000000000005, 0.986, 192.0, 0.0, 0.0, 0.0, 0.0, 0.0, 0.0, 0.0, 0.0, 0.0, 1.715162181243693E9, 0.0, 2024-05-08 12:56:21.243
61.0, 3354.683918319216, 0.0, 0.0, 0.0, 0.0, 0.0, 0.0, 0.0, -0.002, -0.052000000000000005, 0.986, 192.0, 0.0, 0.0, 0.0, 0.0, 0.0, 0.0, 0.0, 0.0, 0.0, 1.715162181243707E9, 0.0, 2024-05-08 12:56:21.243
62.0, 2771.7504229248075, 0.0, 0.0, 0.0, 0.0, 0.0, 0.0, 0.0, -0.002, -0.052000000000000005, 0.986, 192.0, 0.0, 0.0, 0.0, 0.0, 0.0, 0.0, 0.0, 0.0, 0.0, 1.7151621812437208E9, 0.0, 2024-05-08 12:56:21.243
63.0, 2184.6818548061674, 0.0, 0.0, 0.0, 0.0, 0.0, 0.0, 0.0, -0.002, -0.052000000000000005, 0.986, 192.0, 0.0, 0.0, 0.0, 0.0, 0.0, 0.0, 0.0, 0.0, 0.0, 1.7151621812437344E9, 0.0, 2024-05-08 12:56:21.243
64.0, 1740.239768056842, 0.0, 0.0, 0.0, 0.0, 0.0, 0.0, 0.0, -0.002, -0.052000000000000005, 0.986, 192.0, 0.0, 0.0, 0.0, 0.0, 0.0, 0.0, 0.0, 0.0, 0.0, 1.7151621812437484E9, 0.0, 2024-05-08 12:56:21.243
65.0, 1335.8296556269713, 0.0, 0.0, 0.0, 0.0, 0.0, 0.0, 0.0, -0.002, -0.052000000000000005, 0.986, 192.0, 0.0, 0.0, 0.0, 0.0, 0.0, 0.0, 0.0, 0.0, 0.0, 1.715162181243764E9, 0.0, 2024-05-08 12:56:21.243
66.0, 812.8435388616966, 0.0, 0.0, 0.0, 0.0, 0.0, 0.0, 0.0, -0.002, -0.052000000000000005, 0.986, 192.0, 0.0, 0.0, 0.0, 0.0, 0.0, 0.0, 0.0, 0.0, 0.0, 1.7151621812437809E9, 0.0, 2024-05-08 12:56:21.243
67.0, 111.75872227653531, 0.0, 0.0, 0.0, 0.0, 0.0, 0.0, 0.0, -0.002, -0.052000000000000005, 0.986, 192.0, 0.0, 0.0, 0.0, 0.0, 0.0, 0.0, 0.0, 0.0, 0.0, 1.7151621812438056E9, 0.0, 2024-05-08 12:56:21.243
68.0, -593.7517397107769, 0.0, 0.0, 0.0, 0.0, 0.0, 0.0, 0.0, 0.004, -0.052000000000000005, 0.994, 192.0, 0.0, 32.0, 254.0, 96.0, 31.0, 16.0, 0.0, 0.0, 0.0, 1.715162181243831E9, 0.0, 2024-05-08 12:56:21.243
69.0, -1207.1283110533132, 0.0, 0.0, 0.0, 0.0, 0.0, 0.0, 0.0, 0.004, -0.052000000000000005, 0.994, 192.0, 0.0, 0.0, 0.0, 0.0, 0.0, 0.0, 0.0, 0.0, 0.0, 1.7151621812438562E9, 0.0, 2024-05-08 12:56:21.243
70.0, -1777.7683469973026, 0.0, 0.0, 0.0, 0.0, 0.0, 0.0, 0.0, 0.004, -0.052000000000000005, 0.994, 192.0, 0.0, 0.0, 0.0, 0.0, 0.0, 0.0, 0.0, 0.0, 0.0, 1.715162181243878E9, 0.0, 2024-05-08 12:56:21.243
71.0, -2498.299181258581, 0.0, 0.0, 0.0, 0.0, 0.0, 0.0, 0.0, 0.004, -0.052000000000000005, 0.994, 192.0, 0.0, 0.0, 0.0, 0.0, 0.0, 0.0, 0.0, 0.0, 0.0, 1.7151621812438967E9, 0.0, 2024-05-08 12:56:21.243
72.0, -3411.032666091045, 0.0, 0.0, 0.0, 0.0, 0.0, 0.0, 0.0, 0.004, -0.052000000000000005, 0.994, 192.0, 0.0, 0.0, 0.0, 0.0, 0.0, 0.0, 0.0, 0.0, 0.0, 1.715162181243915E9, 0.0, 2024-05-08 12:56:21.243
73.0, -4233.308641112882, 0.0, 0.0, 0.0, 0.0, 0.0, 0.0, 0.0, 0.004, -0.052000000000000005, 0.994, 192.0, 0.0, 0.0, 0.0, 0.0, 0.0, 0.0, 0.0, 0.0, 0.0, 1.7151621812439384E9, 0.0, 2024-05-08 12:56:21.243
74.0, -4764.587255071075, 0.0, 0.0, 0.0, 0.0, 0.0, 0.0, 0.0, 0.004, -0.052000000000000005, 0.994, 192.0, 0.0, 0.0, 0.0, 0.0, 0.0, 0.0, 0.0, 0.0, 0.0, 1.7151621812439535E9, 0.0, 2024-05-08 12:56:21.243
75.0, -5005.583763788195, 0.0, 0.0, 0.0, 0.0, 0.0, 0.0, 0.0, 0.004, -0.052000000000000005, 0.994, 192.0, 0.0, 0.0, 0.0, 0.0, 0.0, 0.0, 0.0, 0.0, 0.0, 1.7151621812439678E9, 0.0, 2024-05-08 12:56:21.243
76.0, -5263.209970380065, 0.0, 0.0, 0.0, 0.0, 0.0, 0.0, 0.0, 0.004, -0.052000000000000005, 0.994, 192.0, 0.0, 0.0, 0.0, 0.0, 0.0, 0.0, 0.0, 0.0, 0.0, 1.7151621812439923E9, 0.0, 2024-05-08 12:56:21.243
77.0, -5593.72521564069, 0.0, 0.0, 0.0, 0.0, 0.0, 0.0, 0.0, 0.004, -0.052000000000000005, 0.994, 192.0, 0.0, 0.0, 0.0, 0.0, 0.0, 0.0, 0.0, 0.0, 0.0, 1.715162181244016E9, 0.0, 2024-05-08 12:56:21.244
78.0, -5930.074266204151, 0.0, 0.0, 0.0, 0.0, 0.0, 0.0, 0.0, 0.004, -0.05, 0.996, 192.0, 0.0, 32.0, 254.0, 112.0, 31.0, 32.0, 0.0, 0.0, 0.0, 1.7151621812440493E9, 0.0, 2024-05-08 12:56:21.244
79.0, -6141.789989684819, 0.0, 0.0, 0.0, 0.0, 0.0, 0.0, 0.0, 0.004, -0.05, 0.996, 192.0, 0.0, 0.0, 0.0, 0.0, 0.0, 0.0, 0.0, 0.0, 0.0, 1.715162181244064E9, 0.0, 2024-05-08 12:56:21.244
80.0, -6235.4661506970115, 0.0, 0.0, 0.0, 0.0, 0.0, 0.0, 0.0, 0.004, -0.05, 0.996, 192.0, 0.0, 0.0, 0.0, 0.0, 0.0, 0.0, 0.0, 0.0, 0.0, 1.7151621812440782E9, 0.0, 2024-05-08 12:56:21.244
81.0, -6390.78842291694, 0.0, 0.0, 0.0, 0.0, 0.0, 0.0, 0.0, 0.004, -0.05, 0.996, 192.0, 0.0, 0.0, 0.0, 0.0, 0.0, 0.0, 0.0, 0.0, 0.0, 1.7151621812440917E9, 0.0, 2024-05-08 12:56:21.244
82.0, -6704.070473202524, 0.0, 0.0, 0.0, 0.0, 0.0, 0.0, 0.0, 0.004, -0.05, 0.996, 192.0, 0.0, 0.0, 0.0, 0.0, 0.0, 0.0, 0.0, 0.0, 0.0, 1.715162181244106E9, 0.0, 2024-05-08 12:56:21.244
83.0, -6965.585883329616, 0.0, 0.0, 0.0, 0.0, 0.0, 0.0, 0.0, 0.004, -0.05, 0.996, 192.0, 0.0, 0.0, 0.0, 0.0, 0.0, 0.0, 0.0, 0.0, 0.0, 1.7151621812441213E9, 0.0, 2024-05-08 12:56:21.244
84.0, -7033.266965540286, 0.0, 0.0, 0.0, 0.0, 0.0, 0.0, 0.0, 0.004, -0.05, 0.996, 192.0, 0.0, 0.0, 0.0, 0.0, 0.0, 0.0, 0.0, 0.0, 0.0, 1.7151621812441387E9, 0.0, 2024-05-08 12:56:21.244
85.0, -7006.511927427284, 0.0, 0.0, 0.0, 0.0, 0.0, 0.0, 0.0, 0.004, -0.05, 0.996, 192.0, 0.0, 0.0, 0.0, 0.0, 0.0, 0.0, 0.0, 0.0, 0.0, 1.7151621812441523E9, 0.0, 2024-05-08 12:56:21.244
86.0, -7040.151302832521, 0.0, 0.0, 0.0, 0.0, 0.0, 0.0, 0.0, 0.004, -0.05, 0.996, 192.0, 0.0, 0.0, 0.0, 0.0, 0.0, 0.0, 0.0, 0.0, 0.0, 1.715162181244166E9, 0.0, 2024-05-08 12:56:21.244
87.0, -7226.117816700676, 0.0, 0.0, 0.0, 0.0, 0.0, 0.0, 0.0, 0.004, -0.05, 0.996, 192.0, 0.0, 0.0, 0.0, 0.0, 0.0, 0.0, 0.0, 0.0, 0.0, 1.7151621812441795E9, 0.0, 2024-05-08 12:56:21.244
88.0, -7355.64617581918, 0.0, 0.0, 0.0, 0.0, 0.0, 0.0, 0.0, -0.004, -0.054, 0.994, 192.0, 255.0, 224.0, 254.0, 80.0, 31.0, 16.0, 0.0, 0.0, 0.0, 1.7151621812441933E9, 0.0, 2024-05-08 12:56:21.244
89.0, -7317.223527100507, 0.0, 0.0, 0.0, 0.0, 0.0, 0.0, 0.0, -0.004, -0.054, 0.994, 192.0, 0.0, 0.0, 0.0, 0.0, 0.0, 0.0, 0.0, 0.0, 0.0, 1.7151621812442076E9, 0.0, 2024-05-08 12:56:21.244
90.0, -7207.655275780592, 0.0, 0.0, 0.0, 0.0, 0.0, 0.0, 0.0, -0.004, -0.054, 0.994, 192.0, 0.0, 0.0, 0.0, 0.0, 0.0, 0.0, 0.0, 0.0, 0.0, 1.7151621812442214E9, 0.0, 2024-05-08 12:56:21.244
91.0, -7198.245191364907, 0.0, 0.0, 0.0, 0.0, 0.0, 0.0, 0.0, -0.004, -0.054, 0.994, 192.0, 0.0, 0.0, 0.0, 0.0, 0.0, 0.0, 0.0, 0.0, 0.0, 1.7151621812442367E9, 0.0, 2024-05-08 12:56:21.244
92.0, -7351.309937394851, 0.0, 0.0, 0.0, 0.0, 0.0, 0.0, 0.0, -0.004, -0.054, 0.994, 192.0, 0.0, 0.0, 0.0, 0.0, 0.0, 0.0, 0.0, 0.0, 0.0, 1.7151621812442505E9, 0.0, 2024-05-08 12:56:21.244
93.0, -7435.419551780171, 0.0, 0.0, 0.0, 0.0, 0.0, 0.0, 0.0, -0.004, -0.054, 0.994, 192.0, 0.0, 0.0, 0.0, 0.0, 0.0, 0.0, 0.0, 0.0, 0.0, 1.7151621812442641E9, 0.0, 2024-05-08 12:56:21.244
94.0, -7326.052466160353, 0.0, 0.0, 0.0, 0.0, 0.0, 0.0, 0.0, -0.004, -0.054, 0.994, 192.0, 0.0, 0.0, 0.0, 0.0, 0.0, 0.0, 0.0, 0.0, 0.0, 1.715162181244278E9, 0.0, 2024-05-08 12:56:21.244
95.0, -7155.151028055076, 0.0, 0.0, 0.0, 0.0, 0.0, 0.0, 0.0, -0.004, -0.054, 0.994, 192.0, 0.0, 0.0, 0.0, 0.0, 0.0, 0.0, 0.0, 0.0, 0.0, 1.7151621812443008E9, 0.0, 2024-05-08 12:56:21.244
96.0, -7072.181352636976, 0.0, 0.0, 0.0, 0.0, 0.0, 0.0, 0.0, -0.004, -0.054, 0.994, 192.0, 0.0, 0.0, 0.0, 0.0, 0.0, 0.0, 0.0, 0.0, 0.0, 1.715162181244315E9, 0.0, 2024-05-08 12:56:21.244
97.0, -7137.090818535187, 0.0, 0.0, 0.0, 0.0, 0.0, 0.0, 0.0, -0.004, -0.054, 0.994, 192.0, 0.0, 0.0, 0.0, 0.0, 0.0, 0.0, 0.0, 0.0, 0.0, 1.7151621812443285E9, 0.0, 2024-05-08 12:56:21.244
98.0, -7125.132635251598, 0.0, 0.0, 0.0, 0.0, 0.0, 0.0, 0.0, -0.002, -0.05, 0.992, 192.0, 255.0, 240.0, 254.0, 112.0, 31.0, 0.0, 0.0, 0.0, 0.0, 1.715162181244344E9, 0.0, 2024-05-08 12:56:21.244
99.0, -6992.452680164895, 0.0, 0.0, 0.0, 0.0, 0.0, 0.0, 0.0, -0.002, -0.05, 0.992, 192.0, 0.0, 0.0, 0.0, 0.0, 0.0, 0.0, 0.0, 0.0, 0.0, 1.7151621812443583E9, 0.0, 2024-05-08 12:56:21.244
100.0, -6787.420128276364, 0.0, 0.0, 0.0, 0.0, 0.0, 0.0, 0.0, -0.002, -0.05, 0.992, 192.0, 0.0, 0.0, 0.0, 0.0, 0.0, 0.0, 0.0, 0.0, 0.0, 1.715162181244372E9, 0.0, 2024-05-08 12:56:21.244
101.0, -6668.9558826632365, 0.0, 0.0, 0.0, 0.0, 0.0, 0.0, 0.0, -0.002, -0.05, 0.992, 192.0, 0.0, 0.0, 0.0, 0.0, 0.0, 0.0, 0.0, 0.0, 0.0, 1.7151621812443857E9, 0.0, 2024-05-08 12:56:21.244
102.0, -6721.527185622119, 0.0, 0.0, 0.0, 0.0, 0.0, 0.0, 0.0, -0.002, -0.05, 0.992, 192.0, 0.0, 0.0, 0.0, 0.0, 0.0, 0.0, 0.0, 0.0, 0.0, 1.7151621812443995E9, 0.0, 2024-05-08 12:56:21.244
103.0, -6773.919674625358, 0.0, 0.0, 0.0, 0.0, 0.0, 0.0, 0.0, -0.002, -0.05, 0.992, 192.0, 0.0, 0.0, 0.0, 0.0, 0.0, 0.0, 0.0, 0.0, 0.0, 1.7151621812444131E9, 0.0, 2024-05-08 12:56:21.244
104.0, -6691.307627118544, 0.0, 0.0, 0.0, 0.0, 0.0, 0.0, 0.0, -0.002, -0.05, 0.992, 192.0, 0.0, 0.0, 0.0, 0.0, 0.0, 0.0, 0.0, 0.0, 0.0, 1.7151621812444289E9, 0.0, 2024-05-08 12:56:21.244
105.0, -6501.42955797071, 0.0, 0.0, 0.0, 0.0, 0.0, 0.0, 0.0, -0.002, -0.05, 0.992, 192.0, 0.0, 0.0, 0.0, 0.0, 0.0, 0.0, 0.0, 0.0, 0.0, 1.7151621812444425E9, 0.0, 2024-05-08 12:56:21.244
106.0, -6375.5221814539655, 0.0, 0.0, 0.0, 0.0, 0.0, 0.0, 0.0, -0.002, -0.05, 0.992, 192.0, 0.0, 0.0, 0.0, 0.0, 0.0, 0.0, 0.0, 0.0, 0.0, 1.715162181244456E9, 0.0, 2024-05-08 12:56:21.244
107.0, -6378.919646611172, 0.0, 0.0, 0.0, 0.0, 0.0, 0.0, 0.0, -0.002, -0.05, 0.992, 192.0, 0.0, 0.0, 0.0, 0.0, 0.0, 0.0, 0.0, 0.0, 0.0, 1.7151621812444696E9, 0.0, 2024-05-08 12:56:21.244
108.0, -6443.091504942358, 0.0, 0.0, 0.0, 0.0, 0.0, 0.0, 0.0, -0.002, -0.05, 0.992, 192.0, 0.0, 0.0, 254.0, 96.0, 31.0, 16.0, 0.0, 0.0, 0.0, 1.7151621812444832E9, 0.0, 2024-05-08 12:56:21.244
109.0, -6331.623355343742, 0.0, 0.0, 0.0, 0.0, 0.0, 0.0, 0.0, -0.002, -0.05, 0.992, 192.0, 0.0, 0.0, 0.0, 0.0, 0.0, 0.0, 0.0, 0.0, 0.0, 1.7151621812444973E9, 0.0, 2024-05-08 12:56:21.244
110.0, -6138.347821038702, 0.0, 0.0, 0.0, 0.0, 0.0, 0.0, 0.0, -0.002, -0.05, 0.992, 192.0, 0.0, 0.0, 0.0, 0.0, 0.0, 0.0, 0.0, 0.0, 0.0, 1.715162181244511E9, 0.0, 2024-05-08 12:56:21.244
111.0, -5983.561990685701, 0.0, 0.0, 0.0, 0.0, 0.0, 0.0, 0.0, -0.002, -0.05, 0.992, 192.0, 0.0, 0.0, 0.0, 0.0, 0.0, 0.0, 0.0, 0.0, 0.0, 1.7151621812445264E9, 0.0, 2024-05-08 12:56:21.244
112.0, -6007.053674108229, 0.0, 0.0, 0.0, 0.0, 0.0, 0.0, 0.0, -0.002, -0.05, 0.992, 192.0, 0.0, 0.0, 0.0, 0.0, 0.0, 0.0, 0.0, 0.0, 0.0, 1.7151621812445781E9, 0.0, 2024-05-08 12:56:21.244
113.0, -6003.365636273103, 0.0, 0.0, 0.0, 0.0, 0.0, 0.0, 0.0, -0.002, -0.05, 0.992, 192.0, 0.0, 0.0, 0.0, 0.0, 0.0, 0.0, 0.0, 0.0, 0.0, 1.715162181244619E9, 0.0, 2024-05-08 12:56:21.244
114.0, -5859.532160703202, 0.0, 0.0, 0.0, 0.0, 0.0, 0.0, 0.0, -0.002, -0.05, 0.992, 192.0, 0.0, 0.0, 0.0, 0.0, 0.0, 0.0, 0.0, 0.0, 0.0, 1.7151621812446337E9, 0.0, 2024-05-08 12:56:21.244
115.0, -5642.228501108707, 0.0, 0.0, 0.0, 0.0, 0.0, 0.0, 0.0, -0.002, -0.05, 0.992, 192.0, 0.0, 0.0, 0.0, 0.0, 0.0, 0.0, 0.0, 0.0, 0.0, 1.7151621812446487E9, 0.0, 2024-05-08 12:56:21.244
116.0, -5524.077179917954, 0.0, 0.0, 0.0, 0.0, 0.0, 0.0, 0.0, -0.002, -0.05, 0.992, 192.0, 0.0, 0.0, 0.0, 0.0, 0.0, 0.0, 0.0, 0.0, 0.0, 1.7151621812446625E9, 0.0, 2024-05-08 12:56:21.244
117.0, -5534.76131376759, 0.0, 0.0, 0.0, 0.0, 0.0, 0.0, 0.0, -0.002, -0.05, 0.992, 192.0, 0.0, 0.0, 254.0, 112.0, 31.0, 32.0, 0.0, 0.0, 0.0, 1.715162181244678E9, 0.0, 2024-05-08 12:56:21.244
118.0, -5545.959537739699, 0.0, 0.0, 0.0, 0.0, 0.0, 0.0, 0.0, -0.002, -0.05, 0.992, 192.0, 0.0, 0.0, 0.0, 0.0, 0.0, 0.0, 0.0, 0.0, 0.0, 1.7151621812446923E9, 0.0, 2024-05-08 12:56:21.244
119.0, -5405.657637793736, 0.0, 0.0, 0.0, 0.0, 0.0, 0.0, 0.0, -0.002, -0.05, 0.992, 192.0, 0.0, 0.0, 0.0, 0.0, 0.0, 0.0, 0.0, 0.0, 0.0, 1.715162181244706E9, 0.0, 2024-05-08 12:56:21.244
120.0, -5192.511402667928, 0.0, 0.0, 0.0, 0.0, 0.0, 0.0, 0.0, -0.002, -0.05, 0.992, 192.0, 0.0, 0.0, 0.0, 0.0, 0.0, 0.0, 0.0, 0.0, 0.0, 1.7151621812447195E9, 0.0, 2024-05-08 12:56:21.244
121.0, -5043.581729362218, 0.0, 0.0, 0.0, 0.0, 0.0, 0.0, 0.0, -0.002, -0.05, 0.992, 192.0, 0.0, 0.0, 0.0, 0.0, 0.0, 0.0, 0.0, 0.0, 0.0, 1.71516218172204E9, 0.0, 2024-05-08 12:56:21.722
122.0, -5070.806154108782, 0.0, 0.0, 0.0, 0.0, 0.0, 0.0, 0.0, -0.002, -0.05, 0.992, 192.0, 0.0, 0.0, 0.0, 0.0, 0.0, 0.0, 0.0, 0.0, 0.0, 1.7151621817221425E9, 0.0, 2024-05-08 12:56:21.722
123.0, -5081.266770513866, 0.0, 0.0, 0.0, 0.0, 0.0, 0.0, 0.0, -0.002, -0.05, 0.992, 192.0, 0.0, 0.0, 0.0, 0.0, 0.0, 0.0, 0.0, 0.0, 0.0, 1.7151621817221708E9, 0.0, 2024-05-08 12:56:21.722
124.0, -4949.324422994187, 0.0, 0.0, 0.0, 0.0, 0.0, 0.0, 0.0, -0.002, -0.05, 0.992, 192.0, 0.0, 0.0, 0.0, 0.0, 0.0, 0.0, 0.0, 0.0, 0.0, 1.7151621817222028E9, 0.0, 2024-05-08 12:56:21.722
125.0, -4713.334705035056, 0.0, 0.0, 0.0, 0.0, 0.0, 0.0, 0.0, -0.002, -0.05, 0.992, 192.0, 0.0, 0.0, 0.0, 0.0, 0.0, 0.0, 0.0, 0.0, 0.0, 1.7151621817222311E9, 0.0, 2024-05-08 12:56:21.722
126.0, -4594.758700699652, 0.0, 0.0, 0.0, 0.0, 0.0, 0.0, 0.0, -0.002, -0.05, 0.992, 192.0, 0.0, 0.0, 0.0, 0.0, 0.0, 0.0, 0.0, 0.0, 0.0, 1.7151621817222595E9, 0.0, 2024-05-08 12:56:21.722
127.0, -4631.102637183981, 0.0, 0.0, 0.0, 0.0, 0.0, 0.0, 0.0, -0.002, -0.05, 0.992, 192.0, 0.0, 0.0, 254.0, 128.0, 31.0, 16.0, 0.0, 0.0, 0.0, 1.715162181722288E9, 0.0, 2024-05-08 12:56:21.722
128.0, -4645.295994913101, 0.0, 0.0, 0.0, 0.0, 0.0, 0.0, 0.0, -0.002, -0.05, 0.992, 192.0, 0.0, 0.0, 0.0, 0.0, 0.0, 0.0, 0.0, 0.0, 0.0, 1.7151621817223132E9, 0.0, 2024-05-08 12:56:21.722
129.0, -4525.244775443647, 0.0, 0.0, 0.0, 0.0, 0.0, 0.0, 0.0, -0.002, -0.05, 0.992, 192.0, 0.0, 0.0, 0.0, 0.0, 0.0, 0.0, 0.0, 0.0, 0.0, 1.7151621817223313E9, 0.0, 2024-05-08 12:56:21.722
130.0, -4299.022769811484, 0.0, 0.0, 0.0, 0.0, 0.0, 0.0, 0.0, -0.002, -0.05, 0.992, 192.0, 0.0, 0.0, 0.0, 0.0, 0.0, 0.0, 0.0, 0.0, 0.0, 1.7151621817223904E9, 0.0, 2024-05-08 12:56:21.722
131.0, -4152.797657584865, 0.0, 0.0, 0.0, 0.0, 0.0, 0.0, 0.0, -0.002, -0.05, 0.992, 192.0, 0.0, 0.0, 0.0, 0.0, 0.0, 0.0, 0.0, 0.0, 0.0, 1.7151621817224045E9, 0.0, 2024-05-08 12:56:21.722
132.0, -4193.008445859962, 0.0, 0.0, 0.0, 0.0, 0.0, 0.0, 0.0, -0.002, -0.05, 0.992, 192.0, 0.0, 0.0, 0.0, 0.0, 0.0, 0.0, 0.0, 0.0, 0.0, 1.7151621817224185E9, 0.0, 2024-05-08 12:56:21.722
133.0, -4214.399065303692, 0.0, 0.0, 0.0, 0.0, 0.0, 0.0, 0.0, -0.002, -0.05, 0.992, 192.0, 0.0, 0.0, 0.0, 0.0, 0.0, 0.0, 0.0, 0.0, 0.0, 1.7151621817224324E9, 0.0, 2024-05-08 12:56:21.722
134.0, -4108.407093096625, 0.0, 0.0, 0.0, 0.0, 0.0, 0.0, 0.0, -0.002, -0.05, 0.992, 192.0, 0.0, 0.0, 0.0, 0.0, 0.0, 0.0, 0.0, 0.0, 0.0, 1.7151621817224464E9, 0.0, 2024-05-08 12:56:21.722
135.0, -3916.3385529921716, 0.0, 0.0, 0.0, 0.0, 0.0, 0.0, 0.0, -0.002, -0.05, 0.992, 192.0, 0.0, 0.0, 0.0, 0.0, 0.0, 0.0, 0.0, 0.0, 0.0, 1.71516218172246E9, 0.0, 2024-05-08 12:56:21.722
136.0, -3823.399999547005, 0.0, 0.0, 0.0, 0.0, 0.0, 0.0, 0.0, -0.002, -0.05, 0.992, 192.0, 0.0, 0.0, 0.0, 0.0, 0.0, 0.0, 0.0, 0.0, 0.0, 1.715162181722474E9, 0.0, 2024-05-08 12:56:21.722
137.0, -3959.142143624085, 0.0, 0.0, 0.0, 0.0, 0.0, 0.0, 0.0, -0.002, -0.05, 0.992, 192.0, 0.0, 0.0, 254.0, 96.0, 31.0, 32.0, 0.0, 0.0, 0.0, 1.7151621817224898E9, 0.0, 2024-05-08 12:56:21.722
138.0, -4102.752101749433, 0.0, 0.0, 0.0, 0.0, 0.0, 0.0, 0.0, -0.002, -0.05, 0.992, 192.0, 0.0, 0.0, 0.0, 0.0, 0.0, 0.0, 0.0, 0.0, 0.0, 1.7151621817225044E9, 0.0, 2024-05-08 12:56:21.722
139.0, -3989.764033527855, 0.0, 0.0, 0.0, 0.0, 0.0, 0.0, 0.0, -0.002, -0.05, 0.992, 192.0, 0.0, 0.0, 0.0, 0.0, 0.0, 0.0, 0.0, 0.0, 0.0, 1.7151621817225182E9, 0.0, 2024-05-08 12:56:21.722
140.0, -3838.4874270543373, 0.0, 0.0, 0.0, 0.0, 0.0, 0.0, 0.0, -0.002, -0.05, 0.992, 192.0, 0.0, 0.0, 0.0, 0.0, 0.0, 0.0, 0.0, 0.0, 0.0, 1.715162181722554E9, 0.0, 2024-05-08 12:56:21.722
141.0, -3794.432138732927, 0.0, 0.0, 0.0, 0.0, 0.0, 0.0, 0.0, -0.002, -0.05, 0.992, 192.0, 0.0, 0.0, 0.0, 0.0, 0.0, 0.0, 0.0, 0.0, 0.0, 1.715162181722572E9, 0.0, 2024-05-08 12:56:21.722
142.0, -3871.7691745482894, 0.0, 0.0, 0.0, 0.0, 0.0, 0.0, 0.0, -0.002, -0.05, 0.992, 192.0, 0.0, 0.0, 0.0, 0.0, 0.0, 0.0, 0.0, 0.0, 0.0, 1.7151621817225897E9, 0.0, 2024-05-08 12:56:21.722
143.0, -3985.897181737087, 0.0, 0.0, 0.0, 0.0, 0.0, 0.0, 0.0, -0.002, -0.05, 0.992, 192.0, 0.0, 0.0, 0.0, 0.0, 0.0, 0.0, 0.0, 0.0, 0.0, 1.715162181722612E9, 0.0, 2024-05-08 12:56:21.722
144.0, -3926.5980036971578, 0.0, 0.0, 0.0, 0.0, 0.0, 0.0, 0.0, -0.002, -0.05, 0.992, 192.0, 0.0, 0.0, 0.0, 0.0, 0.0, 0.0, 0.0, 0.0, 0.0, 1.715162181722632E9, 0.0, 2024-05-08 12:56:21.722
145.0, -3765.821905830134, 0.0, 0.0, 0.0, 0.0, 0.0, 0.0, 0.0, -0.002, -0.05, 0.992, 192.0, 0.0, 0.0, 0.0, 0.0, 0.0, 0.0, 0.0, 0.0, 0.0, 1.715162181722652E9, 0.0, 2024-05-08 12:56:21.722
146.0, -3701.337123076573, 0.0, 0.0, 0.0, 0.0, 0.0, 0.0, 0.0, -0.002, -0.05, 0.992, 192.0, 0.0, 0.0, 0.0, 0.0, 0.0, 0.0, 0.0, 0.0, 0.0, 1.715162181722672E9, 0.0, 2024-05-08 12:56:21.722
147.0, -3827.1103891265857, 0.0, 0.0, 0.0, 0.0, 0.0, 0.0, 0.0, 0.004, -0.054, 0.994, 192.0, 0.0, 32.0, 254.0, 80.0, 31.0, 16.0, 0.0, 0.0, 0.0, 1.715162181722692E9, 0.0, 2024-05-08 12:56:21.722
148.0, -3944.9934893838754, 0.0, 0.0, 0.0, 0.0, 0.0, 0.0, 0.0, 0.004, -0.054, 0.994, 192.0, 0.0, 0.0, 0.0, 0.0, 0.0, 0.0, 0.0, 0.0, 0.0, 1.7151621817227263E9, 0.0, 2024-05-08 12:56:21.722
149.0, -3876.552447861725, 0.0, 0.0, 0.0, 0.0, 0.0, 0.0, 0.0, 0.004, -0.054, 0.994, 192.0, 0.0, 0.0, 0.0, 0.0, 0.0, 0.0, 0.0, 0.0, 0.0, 1.7151621817227466E9, 0.0, 2024-05-08 12:56:21.722
150.0, -3719.6208500410144, 0.0, 0.0, 0.0, 0.0, 0.0, 0.0, 0.0, 0.004, -0.054, 0.994, 192.0, 0.0, 0.0, 0.0, 0.0, 0.0, 0.0, 0.0, 0.0, 0.0, 1.7151621817227683E9, 0.0, 2024-05-08 12:56:21.722
151.0, -3645.502465427216, 0.0, 0.0, 0.0, 0.0, 0.0, 0.0, 0.0, 0.004, -0.054, 0.994, 192.0, 0.0, 0.0, 0.0, 0.0, 0.0, 0.0, 0.0, 0.0, 0.0, 1.7151621817227883E9, 0.0, 2024-05-08 12:56:21.722
152.0, -3791.526411953737, 0.0, 0.0, 0.0, 0.0, 0.0, 0.0, 0.0, 0.004, -0.054, 0.994, 192.0, 0.0, 0.0, 0.0, 0.0, 0.0, 0.0, 0.0, 0.0, 0.0, 1.7151621817228084E9, 0.0, 2024-05-08 12:56:21.722
153.0, -3890.9693230353982, 0.0, 0.0, 0.0, 0.0, 0.0, 0.0, 0.0, 0.004, -0.054, 0.994, 192.0, 0.0, 0.0, 0.0, 0.0, 0.0, 0.0, 0.0, 0.0, 0.0, 1.7151621817228284E9, 0.0, 2024-05-08 12:56:21.722
154.0, -3796.3767405005387, 0.0, 0.0, 0.0, 0.0, 0.0, 0.0, 0.0, 0.004, -0.054, 0.994, 192.0, 0.0, 0.0, 0.0, 0.0, 0.0, 0.0, 0.0, 0.0, 0.0, 1.7151621817228477E9, 0.0, 2024-05-08 12:56:21.722
155.0, -3654.085535298054, 0.0, 0.0, 0.0, 0.0, 0.0, 0.0, 0.0, 0.004, -0.054, 0.994, 192.0, 0.0, 0.0, 0.0, 0.0, 0.0, 0.0, 0.0, 0.0, 0.0, 1.715162181722866E9, 0.0, 2024-05-08 12:56:21.722
156.0, -3568.478354034228, 0.0, 0.0, 0.0, 0.0, 0.0, 0.0, 0.0, 0.004, -0.054, 0.994, 192.0, 0.0, 0.0, 0.0, 0.0, 0.0, 0.0, 0.0, 0.0, 0.0, 1.7151621817228878E9, 0.0, 2024-05-08 12:56:21.722
157.0, -3672.3469105180397, 0.0, 0.0, 0.0, 0.0, 0.0, 0.0, 0.0, 0.002, -0.05, 0.992, 192.0, 0.0, 16.0, 254.0, 112.0, 31.0, 0.0, 0.0, 0.0, 0.0, 1.71516218172291E9, 0.0, 2024-05-08 12:56:21.722
158.0, -3777.087185035609, 0.0, 0.0, 0.0, 0.0, 0.0, 0.0, 0.0, 0.002, -0.05, 0.992, 192.0, 0.0, 0.0, 0.0, 0.0, 0.0, 0.0, 0.0, 0.0, 0.0, 1.7151621817229245E9, 0.0, 2024-05-08 12:56:21.722
159.0, -3728.3603821230395, 0.0, 0.0, 0.0, 0.0, 0.0, 0.0, 0.0, 0.002, -0.05, 0.992, 192.0, 0.0, 0.0, 0.0, 0.0, 0.0, 0.0, 0.0, 0.0, 0.0, 1.7151621817229383E9, 0.0, 2024-05-08 12:56:21.722
160.0, -3548.250025302175, 0.0, 0.0, 0.0, 0.0, 0.0, 0.0, 0.0, 0.002, -0.05, 0.992, 192.0, 0.0, 0.0, 0.0, 0.0, 0.0, 0.0, 0.0, 0.0, 0.0, 1.715162181722952E9, 0.0, 2024-05-08 12:56:21.722
161.0, -3472.4552598542286, 0.0, 0.0, 0.0, 0.0, 0.0, 0.0, 0.0, 0.002, -0.05, 0.992, 192.0, 0.0, 0.0, 0.0, 0.0, 0.0, 0.0, 0.0, 0.0, 0.0, 1.7151621817229671E9, 0.0, 2024-05-08 12:56:21.722
162.0, -3581.352958840485, 0.0, 0.0, 0.0, 0.0, 0.0, 0.0, 0.0, 0.002, -0.05, 0.992, 192.0, 0.0, 0.0, 0.0, 0.0, 0.0, 0.0, 0.0, 0.0, 0.0, 1.7151621817229812E9, 0.0, 2024-05-08 12:56:21.722
163.0, -3709.137881891475, 0.0, 0.0, 0.0, 0.0, 0.0, 0.0, 0.0, 0.002, -0.05, 0.992, 192.0, 0.0, 0.0, 0.0, 0.0, 0.0, 0.0, 0.0, 0.0, 0.0, 1.7151621817229967E9, 0.0, 2024-05-08 12:56:21.722
164.0, -3653.079706797565, 0.0, 0.0, 0.0, 0.0, 0.0, 0.0, 0.0, 0.002, -0.05, 0.992, 192.0, 0.0, 0.0, 0.0, 0.0, 0.0, 0.0, 0.0, 0.0, 0.0, 1.7151621817230103E9, 0.0, 2024-05-08 12:56:21.723
165.0, -3475.182172677776, 0.0, 0.0, 0.0, 0.0, 0.0, 0.0, 0.0, 0.002, -0.05, 0.992, 192.0, 0.0, 0.0, 0.0, 0.0, 0.0, 0.0, 0.0, 0.0, 0.0, 1.7151621817230382E9, 0.0, 2024-05-08 12:56:21.723
166.0, -3377.482697663629, 0.0, 0.0, 0.0, 0.0, 0.0, 0.0, 0.0, 0.002, -0.05, 0.992, 192.0, 0.0, 0.0, 0.0, 0.0, 0.0, 0.0, 0.0, 0.0, 0.0, 1.7151621817230694E9, 0.0, 2024-05-08 12:56:21.723
167.0, -3479.183134935276, 0.0, 0.0, 0.0, 0.0, 0.0, 0.0, 0.0, 0.002, -0.05, 0.992, 192.0, 0.0, 0.0, 254.0, 160.0, 31.0, 16.0, 0.0, 0.0, 0.0, 1.715162181723111E9, 0.0, 2024-05-08 12:56:21.723
168.0, -3611.214889432775, 0.0, 0.0, 0.0, 0.0, 0.0, 0.0, 0.0, 0.002, -0.05, 0.992, 192.0, 0.0, 0.0, 0.0, 0.0, 0.0, 0.0, 0.0, 0.0, 0.0, 1.7151621817231517E9, 0.0, 2024-05-08 12:56:21.723
169.0, -3569.1265546234317, 0.0, 0.0, 0.0, 0.0, 0.0, 0.0, 0.0, 0.002, -0.05, 0.992, 192.0, 0.0, 0.0, 0.0, 0.0, 0.0, 0.0, 0.0, 0.0, 0.0, 1.7151621817231903E9, 0.0, 2024-05-08 12:56:21.723
170.0, -3380.0755000204445, 0.0, 0.0, 0.0, 0.0, 0.0, 0.0, 0.0, 0.002, -0.05, 0.992, 192.0, 0.0, 0.0, 0.0, 0.0, 0.0, 0.0, 0.0, 0.0, 0.0, 1.7151621817232313E9, 0.0, 2024-05-08 12:56:21.723
171.0, -3290.7802809214927, 0.0, 0.0, 0.0, 0.0, 0.0, 0.0, 0.0, 0.002, -0.05, 0.992, 192.0, 0.0, 0.0, 0.0, 0.0, 0.0, 0.0, 0.0, 0.0, 0.0, 1.715162181723359E9, 0.0, 2024-05-08 12:56:21.723
172.0, -3407.2328695336428, 0.0, 0.0, 0.0, 0.0, 0.0, 0.0, 0.0, 0.002, -0.05, 0.992, 192.0, 0.0, 0.0, 0.0, 0.0, 0.0, 0.0, 0.0, 0.0, 0.0, 1.7151621817234E9, 0.0, 2024-05-08 12:56:21.723
173.0, -3532.4249902278175, 0.0, 0.0, 0.0, 0.0, 0.0, 0.0, 0.0, 0.002, -0.05, 0.992, 192.0, 0.0, 0.0, 0.0, 0.0, 0.0, 0.0, 0.0, 0.0, 0.0, 1.7151621817235012E9, 0.0, 2024-05-08 12:56:21.723
174.0, -3460.3629661039076, 0.0, 0.0, 0.0, 0.0, 0.0, 0.0, 0.0, 0.002, -0.05, 0.992, 192.0, 0.0, 0.0, 0.0, 0.0, 0.0, 0.0, 0.0, 0.0, 0.0, 1.7151621817236023E9, 0.0, 2024-05-08 12:56:21.723
175.0, -3245.629757121773, 0.0, 0.0, 0.0, 0.0, 0.0, 0.0, 0.0, 0.002, -0.05, 0.992, 192.0, 0.0, 0.0, 0.0, 0.0, 0.0, 0.0, 0.0, 0.0, 0.0, 1.7151621817236545E9, 0.0, 2024-05-08 12:56:21.723
176.0, -3150.7466019089943, 0.0, 0.0, 0.0, 0.0, 0.0, 0.0, 0.0, 0.002, -0.05, 0.992, 192.0, 0.0, 0.0, 0.0, 0.0, 0.0, 0.0, 0.0, 0.0, 0.0, 1.7151621817237103E9, 0.0, 2024-05-08 12:56:21.723
177.0, -3277.235123781577, 0.0, 0.0, 0.0, 0.0, 0.0, 0.0, 0.0, 0.002, -0.05, 0.992, 192.0, 0.0, 0.0, 254.0, 144.0, 31.0, 48.0, 0.0, 0.0, 0.0, 1.7151621817237654E9, 0.0, 2024-05-08 12:56:21.723
178.0, -3412.284363780542, 0.0, 0.0, 0.0, 0.0, 0.0, 0.0, 0.0, 0.002, -0.05, 0.992, 192.0, 0.0, 0.0, 0.0, 0.0, 0.0, 0.0, 0.0, 0.0, 0.0, 1.715162181723822E9, 0.0, 2024-05-08 12:56:21.723
179.0, -3326.2077958831546, 0.0, 0.0, 0.0, 0.0, 0.0, 0.0, 0.0, 0.002, -0.05, 0.992, 192.0, 0.0, 0.0, 0.0, 0.0, 0.0, 0.0, 0.0, 0.0, 0.0, 1.715162181723875E9, 0.0, 2024-05-08 12:56:21.723
180.0, -3111.85456655676, 0.0, 0.0, 0.0, 0.0, 0.0, 0.0, 0.0, 0.002, -0.05, 0.992, 192.0, 0.0, 0.0, 0.0, 0.0, 0.0, 0.0, 0.0, 0.0, 0.0, 1.7151621817239273E9, 0.0, 2024-05-08 12:56:21.723
181.0, -2954.855913502683, 0.0, 0.0, 0.0, 0.0, 0.0, 0.0, 0.0, 0.002, -0.05, 0.992, 192.0, 0.0, 0.0, 0.0, 0.0, 0.0, 0.0, 0.0, 0.0, 0.0, 1.7151621817240987E9, 0.0, 2024-05-08 12:56:21.724
182.0, -3043.122952356691, 0.0, 0.0, 0.0, 0.0, 0.0, 0.0, 0.0, 0.002, -0.05, 0.992, 192.0, 0.0, 0.0, 0.0, 0.0, 0.0, 0.0, 0.0, 0.0, 0.0, 1.7151621817241733E9, 0.0, 2024-05-08 12:56:21.724
183.0, -3164.1129450932676, 0.0, 0.0, 0.0, 0.0, 0.0, 0.0, 0.0, 0.002, -0.05, 0.992, 192.0, 0.0, 0.0, 0.0, 0.0, 0.0, 0.0, 0.0, 0.0, 0.0, 1.715162181724194E9, 0.0, 2024-05-08 12:56:21.724
184.0, -3072.0014061929473, 0.0, 0.0, 0.0, 0.0, 0.0, 0.0, 0.0, 0.002, -0.05, 0.992, 192.0, 0.0, 0.0, 0.0, 0.0, 0.0, 0.0, 0.0, 0.0, 0.0, 1.7151621817242126E9, 0.0, 2024-05-08 12:56:21.724
185.0, -2831.787208531762, 0.0, 0.0, 0.0, 0.0, 0.0, 0.0, 0.0, 0.002, -0.05, 0.992, 192.0, 0.0, 0.0, 0.0, 0.0, 0.0, 0.0, 0.0, 0.0, 0.0, 1.7151621817242315E9, 0.0, 2024-05-08 12:56:21.724
186.0, -2684.869192227029, 0.0, 0.0, 0.0, 0.0, 0.0, 0.0, 0.0, 0.002, -0.05, 0.992, 192.0, 0.0, 0.0, 0.0, 0.0, 0.0, 0.0, 0.0, 0.0, 0.0, 1.7151621817242503E9, 0.0, 2024-05-08 12:56:21.724
187.0, -2767.570646711665, 0.0, 0.0, 0.0, 0.0, 0.0, 0.0, 0.0, 0.002, -0.046, 0.992, 192.0, 0.0, 16.0, 254.0, 144.0, 31.0, 0.0, 0.0, 0.0, 0.0, 1.7151621817242692E9, 0.0, 2024-05-08 12:56:21.724
188.0, -2817.996182202838, 0.0, 0.0, 0.0, 0.0, 0.0, 0.0, 0.0, 0.002, -0.046, 0.992, 192.0, 0.0, 0.0, 0.0, 0.0, 0.0, 0.0, 0.0, 0.0, 0.0, 1.7151621817242887E9, 0.0, 2024-05-08 12:56:21.724
189.0, -2698.1014249445707, 0.0, 0.0, 0.0, 0.0, 0.0, 0.0, 0.0, 0.002, -0.046, 0.992, 192.0, 0.0, 0.0, 0.0, 0.0, 0.0, 0.0, 0.0, 0.0, 0.0, 1.7151621817243097E9, 0.0, 2024-05-08 12:56:21.724
190.0, -2438.9105962408303, 0.0, 0.0, 0.0, 0.0, 0.0, 0.0, 0.0, 0.002, -0.046, 0.992, 192.0, 0.0, 0.0, 0.0, 0.0, 0.0, 0.0, 0.0, 0.0, 0.0, 1.715162181724329E9, 0.0, 2024-05-08 12:56:21.724
191.0, -2291.210268880161, 0.0, 0.0, 0.0, 0.0, 0.0, 0.0, 0.0, 0.002, -0.046, 0.992, 192.0, 0.0, 0.0, 0.0, 0.0, 0.0, 0.0, 0.0, 0.0, 0.0, 1.715162181724348E9, 0.0, 2024-05-08 12:56:21.724
192.0, -2377.0186158440847, 0.0, 0.0, 0.0, 0.0, 0.0, 0.0, 0.0, 0.002, -0.046, 0.992, 192.0, 0.0, 0.0, 0.0, 0.0, 0.0, 0.0, 0.0, 0.0, 0.0, 1.7151621817243664E9, 0.0, 2024-05-08 12:56:21.724
193.0, -2463.877494797408, 0.0, 0.0, 0.0, 0.0, 0.0, 0.0, 0.0, 0.002, -0.046, 0.992, 192.0, 0.0, 0.0, 0.0, 0.0, 0.0, 0.0, 0.0, 0.0, 0.0, 1.715162181724386E9, 0.0, 2024-05-08 12:56:21.724
194.0, -2359.3160342354818, 0.0, 0.0, 0.0, 0.0, 0.0, 0.0, 0.0, 0.002, -0.046, 0.992, 192.0, 0.0, 0.0, 0.0, 0.0, 0.0, 0.0, 0.0, 0.0, 0.0, 1.7151621817244048E9, 0.0, 2024-05-08 12:56:21.724
195.0, -2096.2807054854284, 0.0, 0.0, 0.0, 0.0, 0.0, 0.0, 0.0, 0.002, -0.046, 0.992, 192.0, 0.0, 0.0, 0.0, 0.0, 0.0, 0.0, 0.0, 0.0, 0.0, 1.7151621817244256E9, 0.0, 2024-05-08 12:56:21.724
196.0, -1942.8583315442006, 0.0, 0.0, 0.0, 0.0, 0.0, 0.0, 0.0, 0.002, -0.046, 0.992, 192.0, 0.0, 0.0, 0.0, 0.0, 0.0, 0.0, 0.0, 0.0, 0.0, 1.7151621817244465E9, 0.0, 2024-05-08 12:56:21.724
197.0, -2024.2633848504288, 0.0, 0.0, 0.0, 0.0, 0.0, 0.0, 0.0, 0.002, -0.05, 0.996, 192.0, 0.0, 16.0, 254.0, 112.0, 31.0, 32.0, 0.0, 0.0, 0.0, 1.7151621817244644E9, 0.0, 2024-05-08 12:56:21.724
198.0, -2120.934679619632, 0.0, 0.0, 0.0, 0.0, 0.0, 0.0, 0.0, 0.002, -0.05, 0.996, 192.0, 0.0, 0.0, 0.0, 0.0, 0.0, 0.0, 0.0, 0.0, 0.0, 1.7151621817244835E9, 0.0, 2024-05-08 12:56:21.724
199.0, -2016.2838120798842, 0.0, 0.0, 0.0, 0.0, 0.0, 0.0, 0.0, 0.002, -0.05, 0.996, 192.0, 0.0, 0.0, 0.0, 0.0, 0.0, 0.0, 0.0, 0.0, 0.0, 1.7151621817245028E9, 0.0, 2024-05-08 12:56:21.724
200.0, -1771.7333759943697, 0.0, 0.0, 0.0, 0.0, 0.0, 0.0, 0.0, 0.002, -0.05, 0.996, 192.0, 0.0, 0.0, 0.0, 0.0, 0.0, 0.0, 0.0, 0.0, 0.0, 1.715162181724578E9, 0.0, 2024-05-08 12:56:21.724
201.0, -1623.496606766773, 0.0, 0.0, 0.0, 0.0, 0.0, 0.0, 0.0, 0.002, -0.05, 0.996, 192.0, 0.0, 0.0, 0.0, 0.0, 0.0, 0.0, 0.0, 0.0, 0.0, 1.7151621817245984E9, 0.0, 2024-05-08 12:56:21.724
202.0, -1719.8996806025125, 0.0, 0.0, 0.0, 0.0, 0.0, 0.0, 0.0, 0.002, -0.05, 0.996, 192.0, 0.0, 0.0, 0.0, 0.0, 0.0, 0.0, 0.0, 0.0, 0.0, 1.715162181724619E9, 0.0, 2024-05-08 12:56:21.724
203.0, -1826.852777821157, 0.0, 0.0, 0.0, 0.0, 0.0, 0.0, 0.0, 0.002, -0.05, 0.996, 192.0, 0.0, 0.0, 0.0, 0.0, 0.0, 0.0, 0.0, 0.0, 0.0, 1.7151621817246408E9, 0.0, 2024-05-08 12:56:21.724
204.0, -1707.3603519630853, 0.0, 0.0, 0.0, 0.0, 0.0, 0.0, 0.0, 0.002, -0.05, 0.996, 192.0, 0.0, 0.0, 0.0, 0.0, 0.0, 0.0, 0.0, 0.0, 0.0, 1.7151621817246597E9, 0.0, 2024-05-08 12:56:21.724
205.0, -1452.2598924946658, 0.0, 0.0, 0.0, 0.0, 0.0, 0.0, 0.0, 0.002, -0.05, 0.996, 192.0, 0.0, 0.0, 0.0, 0.0, 0.0, 0.0, 0.0, 0.0, 0.0, 1.7151621817246778E9, 0.0, 2024-05-08 12:56:21.724
206.0, -1314.930774561259, 0.0, 0.0, 0.0, 0.0, 0.0, 0.0, 0.0, 0.002, -0.05, 0.996, 192.0, 0.0, 0.0, 0.0, 0.0, 0.0, 0.0, 0.0, 0.0, 0.0, 1.7151621817246962E9, 0.0, 2024-05-08 12:56:21.724
207.0, -1432.6127091184508, 0.0, 0.0, 0.0, 0.0, 0.0, 0.0, 0.0, 0.002, -0.05, 0.992, 192.0, 0.0, 16.0, 254.0, 112.0, 31.0, 0.0, 0.0, 0.0, 0.0, 1.7151621817247152E9, 0.0, 2024-05-08 12:56:21.724
208.0, -1553.8485710440364, 0.0, 0.0, 0.0, 0.0, 0.0, 0.0, 0.0, 0.002, -0.05, 0.992, 192.0, 0.0, 0.0, 0.0, 0.0, 0.0, 0.0, 0.0, 0.0, 0.0, 1.7151621817247353E9, 0.0, 2024-05-08 12:56:21.724
209.0, -1470.118936314456, 0.0, 0.0, 0.0, 0.0, 0.0, 0.0, 0.0, 0.002, -0.05, 0.992, 192.0, 0.0, 0.0, 0.0, 0.0, 0.0, 0.0, 0.0, 0.0, 0.0, 1.7151621817247572E9, 0.0, 2024-05-08 12:56:21.724
210.0, -1247.584968517419, 0.0, 0.0, 0.0, 0.0, 0.0, 0.0, 0.0, 0.002, -0.05, 0.992, 192.0, 0.0, 0.0, 0.0, 0.0, 0.0, 0.0, 0.0, 0.0, 0.0, 1.7151621817247777E9, 0.0, 2024-05-08 12:56:21.724
211.0, -1124.3821530797666, 0.0, 0.0, 0.0, 0.0, 0.0, 0.0, 0.0, 0.002, -0.05, 0.992, 192.0, 0.0, 0.0, 0.0, 0.0, 0.0, 0.0, 0.0, 0.0, 0.0, 1.7151621817247992E9, 0.0, 2024-05-08 12:56:21.724
212.0, -1240.9017969252823, 0.0, 0.0, 0.0, 0.0, 0.0, 0.0, 0.0, 0.002, -0.05, 0.992, 192.0, 0.0, 0.0, 0.0, 0.0, 0.0, 0.0, 0.0, 0.0, 0.0, 1.715162181724818E9, 0.0, 2024-05-08 12:56:21.724
213.0, -1367.0550426310353, 0.0, 0.0, 0.0, 0.0, 0.0, 0.0, 0.0, 0.002, -0.05, 0.992, 192.0, 0.0, 0.0, 0.0, 0.0, 0.0, 0.0, 0.0, 0.0, 0.0, 1.7151621817248368E9, 0.0, 2024-05-08 12:56:21.724
214.0, -1306.2135942236894, 0.0, 0.0, 0.0, 0.0, 0.0, 0.0, 0.0, 0.002, -0.05, 0.992, 192.0, 0.0, 0.0, 0.0, 0.0, 0.0, 0.0, 0.0, 0.0, 0.0, 1.7151621817248554E9, 0.0, 2024-05-08 12:56:21.724
215.0, -1099.7281789455628, 0.0, 0.0, 0.0, 0.0, 0.0, 0.0, 0.0, 0.002, -0.05, 0.992, 192.0, 0.0, 0.0, 0.0, 0.0, 0.0, 0.0, 0.0, 0.0, 0.0, 1.7151621817248733E9, 0.0, 2024-05-08 12:56:21.724
216.0, -980.8839536766951, 0.0, 0.0, 0.0, 0.0, 0.0, 0.0, 0.0, 0.002, -0.05, 0.992, 192.0, 0.0, 0.0, 0.0, 0.0, 0.0, 0.0, 0.0, 0.0, 0.0, 1.715162181724894E9, 0.0, 2024-05-08 12:56:21.724
217.0, -1071.6096844207866, 0.0, 0.0, 0.0, 0.0, 0.0, 0.0, 0.0, -0.002, -0.048, 0.994, 192.0, 255.0, 240.0, 254.0, 128.0, 31.0, 16.0, 0.0, 0.0, 0.0, 1.7151621817249453E9, 0.0, 2024-05-08 12:56:21.724
218.0, -1244.2545585935782, 0.0, 0.0, 0.0, 0.0, 0.0, 0.0, 0.0, -0.002, -0.048, 0.994, 192.0, 0.0, 0.0, 0.0, 0.0, 0.0, 0.0, 0.0, 0.0, 0.0, 1.715162181724965E9, 0.0, 2024-05-08 12:56:21.724
219.0, -1189.42572944471, 0.0, 0.0, 0.0, 0.0, 0.0, 0.0, 0.0, -0.002, -0.048, 0.994, 192.0, 0.0, 0.0, 0.0, 0.0, 0.0, 0.0, 0.0, 0.0, 0.0, 1.715162181724983E9, 0.0, 2024-05-08 12:56:21.724
220.0, -985.1754886121141, 0.0, 0.0, 0.0, 0.0, 0.0, 0.0, 0.0, -0.002, -0.048, 0.994, 192.0, 0.0, 0.0, 0.0, 0.0, 0.0, 0.0, 0.0, 0.0, 0.0, 1.7151621817250009E9, 0.0, 2024-05-08 12:56:21.725
221.0, -893.153356689615, 0.0, 0.0, 0.0, 0.0, 0.0, 0.0, 0.0, -0.002, -0.048, 0.994, 192.0, 0.0, 0.0, 0.0, 0.0, 0.0, 0.0, 0.0, 0.0, 0.0, 1.7151621817250197E9, 0.0, 2024-05-08 12:56:21.725
222.0, -1025.1851111871138, 0.0, 0.0, 0.0, 0.0, 0.0, 0.0, 0.0, -0.002, -0.048, 0.994, 192.0, 0.0, 0.0, 0.0, 0.0, 0.0, 0.0, 0.0, 0.0, 0.0, 1.715162181725041E9, 0.0, 2024-05-08 12:56:21.725
223.0, -1200.266325505534, 0.0, 0.0, 0.0, 0.0, 0.0, 0.0, 0.0, -0.002, -0.048, 0.994, 192.0, 0.0, 0.0, 0.0, 0.0, 0.0, 0.0, 0.0, 0.0, 0.0, 1.7151621817250605E9, 0.0, 2024-05-08 12:56:21.725
224.0, -1201.7638923840395, 0.0, 0.0, 0.0, 0.0, 0.0, 0.0, 0.0, -0.002, -0.048, 0.994, 192.0, 0.0, 0.0, 0.0, 0.0, 0.0, 0.0, 0.0, 0.0, 0.0, 1.7151621817250783E9, 0.0, 2024-05-08 12:56:21.725
225.0, -1023.4863786085104, 0.0, 0.0, 0.0, 0.0, 0.0, 0.0, 0.0, -0.002, -0.048, 0.994, 192.0, 0.0, 0.0, 0.0, 0.0, 0.0, 0.0, 0.0, 0.0, 0.0, 1.7151621817250977E9, 0.0, 2024-05-08 12:56:21.725
226.0, -900.6635428265981, 0.0, 0.0, 0.0, 0.0, 0.0, 0.0, 0.0, -0.002, -0.048, 0.994, 192.0, 0.0, 0.0, 0.0, 0.0, 0.0, 0.0, 0.0, 0.0, 0.0, 1.715162181725122E9, 0.0, 2024-05-08 12:56:21.725
227.0, -1005.8732039777284, 0.0, 0.0, 0.0, 0.0, 0.0, 0.0, 0.0, -0.002, -0.046, 0.99, 192.0, 255.0, 240.0, 254.0, 144.0, 30.0, 240.0, 0.0, 0.0, 0.0, 1.7151621817251406E9, 0.0, 2024-05-08 12:56:21.725
228.0, -1162.335415164878, 0.0, 0.0, 0.0, 0.0, 0.0, 0.0, 0.0, -0.002, -0.046, 0.99, 192.0, 0.0, 0.0, 0.0, 0.0, 0.0, 0.0, 0.0, 0.0, 0.0, 1.715162181725155E9, 0.0, 2024-05-08 12:56:21.725
229.0, -1136.4073915967217, 0.0, 0.0, 0.0, 0.0, 0.0, 0.0, 0.0, -0.002, -0.046, 0.99, 192.0, 0.0, 0.0, 0.0, 0.0, 0.0, 0.0, 0.0, 0.0, 0.0, 1.715162181725171E9, 0.0, 2024-05-08 12:56:21.725
230.0, -984.6166950007314, 0.0, 0.0, 0.0, 0.0, 0.0, 0.0, 0.0, -0.002, -0.046, 0.99, 192.0, 0.0, 0.0, 0.0, 0.0, 0.0, 0.0, 0.0, 0.0, 0.0, 1.7151621817251847E9, 0.0, 2024-05-08 12:56:21.725
231.0, -897.4225398805786, 0.0, 0.0, 0.0, 0.0, 0.0, 0.0, 0.0, -0.002, -0.046, 0.99, 192.0, 0.0, 0.0, 0.0, 0.0, 0.0, 0.0, 0.0, 0.0, 0.0, 1.7151621817251985E9, 0.0, 2024-05-08 12:56:21.725
232.0, -1012.2210994030356, 0.0, 0.0, 0.0, 0.0, 0.0, 0.0, 0.0, -0.002, -0.046, 0.99, 192.0, 0.0, 0.0, 0.0, 0.0, 0.0, 0.0, 0.0, 0.0, 0.0, 1.715162181725212E9, 0.0, 2024-05-08 12:56:21.725
233.0, -1195.3489417253663, 0.0, 0.0, 0.0, 0.0, 0.0, 0.0, 0.0, -0.002, -0.046, 0.99, 192.0, 0.0, 0.0, 0.0, 0.0, 0.0, 0.0, 0.0, 0.0, 0.0, 1.7151621817252254E9, 0.0, 2024-05-08 12:56:21.725
234.0, -1197.4053022152546, 0.0, 0.0, 0.0, 0.0, 0.0, 0.0, 0.0, -0.002, -0.046, 0.99, 192.0, 0.0, 0.0, 0.0, 0.0, 0.0, 0.0, 0.0, 0.0, 0.0, 1.715162181725239E9, 0.0, 2024-05-08 12:56:21.725
235.0, -1081.8467833813172, 0.0, 0.0, 0.0, 0.0, 0.0, 0.0, 0.0, -0.002, -0.046, 0.99, 192.0, 0.0, 0.0, 0.0, 0.0, 0.0, 0.0, 0.0, 0.0, 0.0, 1.7151621817252853E9, 0.0, 2024-05-08 12:56:21.725
236.0, -1030.7953990453957, 0.0, 0.0, 0.0, 0.0, 0.0, 0.0, 0.0, -0.002, -0.046, 0.99, 192.0, 0.0, 0.0, 0.0, 0.0, 0.0, 0.0, 0.0, 0.0, 0.0, 1.7151621817253E9, 0.0, 2024-05-08 12:56:21.725
237.0, -1180.105052006847, 0.0, 0.0, 0.0, 0.0, 0.0, 0.0, 0.0, -0.002, -0.046, 0.99, 192.0, 0.0, 0.0, 254.0, 128.0, 30.0, 224.0, 0.0, 0.0, 0.0, 1.7151621817253137E9, 0.0, 2024-05-08 12:56:21.725
238.0, -1403.3989791153645, 0.0, 0.0, 0.0, 0.0, 0.0, 0.0, 0.0, -0.002, -0.046, 0.99, 192.0, 0.0, 0.0, 0.0, 0.0, 0.0, 0.0, 0.0, 0.0, 0.0, 1.715162181725328E9, 0.0, 2024-05-08 12:56:21.725
239.0, -1476.3550730174868, 0.0, 0.0, 0.0, 0.0, 0.0, 0.0, 0.0, -0.002, -0.046, 0.99, 192.0, 0.0, 0.0, 0.0, 0.0, 0.0, 0.0, 0.0, 0.0, 0.0, 1.7151621817253416E9, 0.0, 2024-05-08 12:56:21.725
240.0, -1383.3718160834094, 0.0, 0.0, 0.0, 0.0, 0.0, 0.0, 0.0, -0.002, -0.046, 0.99, 192.0, 0.0, 0.0, 0.0, 0.0, 0.0, 0.0, 0.0, 0.0, 0.0, 1.7151621817253551E9, 0.0, 2024-05-08 12:56:21.725
241.0, -1389.6526562753506, 0.0, 0.0, 0.0, 0.0, 0.0, 0.0, 0.0, -0.002, -0.046, 0.99, 192.0, 0.0, 0.0, 0.0, 0.0, 0.0, 0.0, 0.0, 0.0, 0.0, 1.7151621822012758E9, 0.0, 2024-05-08 12:56:22.201
242.0, -1560.7105565918157, 0.0, 0.0, 0.0, 0.0, 0.0, 0.0, 0.0, -0.002, -0.046, 0.99, 192.0, 0.0, 0.0, 0.0, 0.0, 0.0, 0.0, 0.0, 0.0, 0.0, 1.715162182201341E9, 0.0, 2024-05-08 12:56:22.201
243.0, -1815.0957602376652, 0.0, 0.0, 0.0, 0.0, 0.0, 0.0, 0.0, -0.002, -0.046, 0.99, 192.0, 0.0, 0.0, 0.0, 0.0, 0.0, 0.0, 0.0, 0.0, 0.0, 1.7151621822013724E9, 0.0, 2024-05-08 12:56:22.201
244.0, -1862.682624183014, 0.0, 0.0, 0.0, 0.0, 0.0, 0.0, 0.0, -0.002, -0.046, 0.99, 192.0, 0.0, 0.0, 0.0, 0.0, 0.0, 0.0, 0.0, 0.0, 0.0, 1.7151621822014012E9, 0.0, 2024-05-08 12:56:22.201
245.0, -1786.619637801604, 0.0, 0.0, 0.0, 0.0, 0.0, 0.0, 0.0, -0.002, -0.046, 0.99, 192.0, 0.0, 0.0, 0.0, 0.0, 0.0, 0.0, 0.0, 0.0, 0.0, 1.7151621822014291E9, 0.0, 2024-05-08 12:56:22.201
246.0, -1747.526436749272, 0.0, 0.0, 0.0, 0.0, 0.0, 0.0, 0.0, -0.002, -0.046, 0.99, 192.0, 0.0, 0.0, 0.0, 0.0, 0.0, 0.0, 0.0, 0.0, 0.0, 1.715162182201458E9, 0.0, 2024-05-08 12:56:22.201
247.0, -1903.1169299026647, 0.0, 0.0, 0.0, 0.0, 0.0, 0.0, 0.0, -0.002, -0.046, 0.99, 192.0, 0.0, 0.0, 254.0, 96.0, 30.0, 224.0, 0.0, 0.0, 0.0, 1.715162182201481E9, 0.0, 2024-05-08 12:56:22.201
248.0, -2102.002752065987, 0.0, 0.0, 0.0, 0.0, 0.0, 0.0, 0.0, -0.002, -0.046, 0.99, 192.0, 0.0, 0.0, 0.0, 0.0, 0.0, 0.0, 0.0, 0.0, 0.0, 1.7151621822015028E9, 0.0, 2024-05-08 12:56:22.201
249.0, -2119.5935749523132, 0.0, 0.0, 0.0, 0.0, 0.0, 0.0, 0.0, -0.002, -0.046, 0.99, 192.0, 0.0, 0.0, 0.0, 0.0, 0.0, 0.0, 0.0, 0.0, 0.0, 1.7151621822015216E9, 0.0, 2024-05-08 12:56:22.201
250.0, -2008.1030736092418, 0.0, 0.0, 0.0, 0.0, 0.0, 0.0, 0.0, -0.002, -0.046, 0.99, 192.0, 0.0, 0.0, 0.0, 0.0, 0.0, 0.0, 0.0, 0.0, 0.0, 1.7151621822015367E9, 0.0, 2024-05-08 12:56:22.201
251.0, -1946.6357763571475, 0.0, 0.0, 0.0, 0.0, 0.0, 0.0, 0.0, -0.002, -0.046, 0.99, 192.0, 0.0, 0.0, 0.0, 0.0, 0.0, 0.0, 0.0, 0.0, 0.0, 1.7151621822015507E9, 0.0, 2024-05-08 12:56:22.201
252.0, -2058.483905611504, 0.0, 0.0, 0.0, 0.0, 0.0, 0.0, 0.0, -0.002, -0.046, 0.99, 192.0, 0.0, 0.0, 0.0, 0.0, 0.0, 0.0, 0.0, 0.0, 0.0, 1.715162182201625E9, 0.0, 2024-05-08 12:56:22.201
253.0, -2254.106373084351, 0.0, 0.0, 0.0, 0.0, 0.0, 0.0, 0.0, -0.002, -0.046, 0.99, 192.0, 0.0, 0.0, 0.0, 0.0, 0.0, 0.0, 0.0, 0.0, 0.0, 1.7151621822016397E9, 0.0, 2024-05-08 12:56:22.201
254.0, -2270.445498281181, 0.0, 0.0, 0.0, 0.0, 0.0, 0.0, 0.0, -0.002, -0.046, 0.99, 192.0, 0.0, 0.0, 0.0, 0.0, 0.0, 0.0, 0.0, 0.0, 0.0, 1.715162182201654E9, 0.0, 2024-05-08 12:56:22.201
255.0, -2129.048362856908, 0.0, 0.0, 0.0, 0.0, 0.0, 0.0, 0.0, -0.002, -0.046, 0.99, 192.0, 0.0, 0.0, 0.0, 0.0, 0.0, 0.0, 0.0, 0.0, 0.0, 1.7151621822016697E9, 0.0, 2024-05-08 12:56:22.201
0.0, -2002.1351578396748, 0.0, 0.0, 0.0, 0.0, 0.0, 0.0, 0.0, -0.002, -0.046, 0.99, 192.0, 0.0, 0.0, 0.0, 0.0, 0.0, 0.0, 0.0, 0.0, 0.0, 1.7151621822016835E9, 0.0, 2024-05-08 12:56:22.201
1.0, -2084.255466968473, 0.0, 0.0, 0.0, 0.0, 0.0, 0.0, 0.0, 0.002, -0.054, 0.986, 192.0, 0.0, 16.0, 254.0, 80.0, 30.0, 208.0, 0.0, 0.0, 0.0, 1.7151621822016973E9, 0.0, 2024-05-08 12:56:22.201
2.0, -2240.7176781556223, 0.0, 0.0, 0.0, 0.0, 0.0, 0.0, 0.0, 0.002, -0.054, 0.986, 192.0, 0.0, 0.0, 0.0, 0.0, 0.0, 0.0, 0.0, 0.0, 0.0, 1.7151621822017152E9, 0.0, 2024-05-08 12:56:22.201
3.0, -2256.632120207801, 0.0, 0.0, 0.0, 0.0, 0.0, 0.0, 0.0, 0.002, -0.054, 0.986, 192.0, 0.0, 0.0, 0.0, 0.0, 0.0, 0.0, 0.0, 0.0, 0.0, 1.71516218220173E9, 0.0, 2024-05-08 12:56:22.201
4.0, -2083.137879745708, 0.0, 0.0, 0.0, 0.0, 0.0, 0.0, 0.0, 0.002, -0.054, 0.986, 192.0, 0.0, 0.0, 0.0, 0.0, 0.0, 0.0, 0.0, 0.0, 0.0, 1.7151621822017443E9, 0.0, 2024-05-08 12:56:22.201
5.0, -1973.9719598259878, 0.0, 0.0, 0.0, 0.0, 0.0, 0.0, 0.0, 0.002, -0.054, 0.986, 192.0, 0.0, 0.0, 0.0, 0.0, 0.0, 0.0, 0.0, 0.0, 0.0, 1.7151621822017589E9, 0.0, 2024-05-08 12:56:22.201
6.0, -2054.862923009744, 0.0, 0.0, 0.0, 0.0, 0.0, 0.0, 0.0, 0.002, -0.054, 0.986, 192.0, 0.0, 0.0, 0.0, 0.0, 0.0, 0.0, 0.0, 0.0, 0.0, 1.7151621822017758E9, 0.0, 2024-05-08 12:56:22.201
7.0, -2208.3300004398825, 0.0, 0.0, 0.0, 0.0, 0.0, 0.0, 0.0, 0.002, -0.054, 0.986, 192.0, 0.0, 0.0, 0.0, 0.0, 0.0, 0.0, 0.0, 0.0, 0.0, 1.7151621822017896E9, 0.0, 2024-05-08 12:56:22.201
8.0, -2203.3902649152596, 0.0, 0.0, 0.0, 0.0, 0.0, 0.0, 0.0, 0.002, -0.054, 0.986, 192.0, 0.0, 0.0, 0.0, 0.0, 0.0, 0.0, 0.0, 0.0, 0.0, 1.7151621822018032E9, 0.0, 2024-05-08 12:56:22.201
9.0, -2046.1680944166299, 0.0, 0.0, 0.0, 0.0, 0.0, 0.0, 0.0, 0.002, -0.054, 0.986, 192.0, 0.0, 0.0, 0.0, 0.0, 0.0, 0.0, 0.0, 0.0, 0.0, 1.7151621822018173E9, 0.0, 2024-05-08 12:56:22.201
10.0, -1915.9244794755555, 0.0, 0.0, 0.0, 0.0, 0.0, 0.0, 0.0, 0.002, -0.054, 0.986, 192.0, 0.0, 0.0, 0.0, 0.0, 0.0, 0.0, 0.0, 0.0, 0.0, 1.7151621822018309E9, 0.0, 2024-05-08 12:56:22.201
11.0, -1964.9195033215885, 0.0, 0.0, 0.0, 0.0, 0.0, 0.0, 0.0, 0.002, -0.054, 0.984, 192.0, 0.0, 16.0, 254.0, 80.0, 30.0, 192.0, 0.0, 0.0, 0.0, 1.7151621822018447E9, 0.0, 2024-05-08 12:56:22.201
12.0, -2065.6811673261127, 0.0, 0.0, 0.0, 0.0, 0.0, 0.0, 0.0, 0.002, -0.054, 0.984, 192.0, 0.0, 0.0, 0.0, 0.0, 0.0, 0.0, 0.0, 0.0, 0.0, 1.7151621822018611E9, 0.0, 2024-05-08 12:56:22.201
13.0, -2027.1914633740741, 0.0, 0.0, 0.0, 0.0, 0.0, 0.0, 0.0, 0.002, -0.054, 0.984, 192.0, 0.0, 0.0, 0.0, 0.0, 0.0, 0.0, 0.0, 0.0, 0.0, 1.7151621822018752E9, 0.0, 2024-05-08 12:56:22.201
14.0, -1842.9236820845226, 0.0, 0.0, 0.0, 0.0, 0.0, 0.0, 0.0, 0.002, -0.054, 0.984, 192.0, 0.0, 0.0, 0.0, 0.0, 0.0, 0.0, 0.0, 0.0, 0.0, 1.7151621822020411E9, 0.0, 2024-05-08 12:56:22.202
15.0, -1665.7190520428483, 0.0, 0.0, 0.0, 0.0, 0.0, 0.0, 0.0, 0.002, -0.054, 0.984, 192.0, 0.0, 0.0, 0.0, 0.0, 0.0, 0.0, 0.0, 0.0, 0.0, 1.715162182202056E9, 0.0, 2024-05-08 12:56:22.202
16.0, -1692.4740901558507, 0.0, 0.0, 0.0, 0.0, 0.0, 0.0, 0.0, 0.002, -0.054, 0.984, 192.0, 0.0, 0.0, 0.0, 0.0, 0.0, 0.0, 0.0, 0.0, 0.0, 1.7151621822020743E9, 0.0, 2024-05-08 12:56:22.202
17.0, -1777.7906987417578, 0.0, 0.0, 0.0, 0.0, 0.0, 0.0, 0.0, 0.002, -0.054, 0.984, 192.0, 0.0, 0.0, 0.0, 0.0, 0.0, 0.0, 0.0, 0.0, 0.0, 1.7151621822020972E9, 0.0, 2024-05-08 12:56:22.202
18.0, -1699.6490001260042, 0.0, 0.0, 0.0, 0.0, 0.0, 0.0, 0.0, 0.002, -0.054, 0.984, 192.0, 0.0, 0.0, 0.0, 0.0, 0.0, 0.0, 0.0, 0.0, 0.0, 1.7151621822021186E9, 0.0, 2024-05-08 12:56:22.202
19.0, -1494.6164482374727, 0.0, 0.0, 0.0, 0.0, 0.0, 0.0, 0.0, 0.002, -0.054, 0.984, 192.0, 0.0, 0.0, 0.0, 0.0, 0.0, 0.0, 0.0, 0.0, 0.0, 1.7151621822021496E9, 0.0, 2024-05-08 12:56:22.202
20.0, -1306.7276843461616, 0.0, 0.0, 0.0, 0.0, 0.0, 0.0, 0.0, 0.002, -0.054, 0.984, 192.0, 0.0, 0.0, 0.0, 0.0, 0.0, 0.0, 0.0, 0.0, 0.0, 1.7151621822021723E9, 0.0, 2024-05-08 12:56:22.202
21.0, -1315.0872367724464, 0.0, 0.0, 0.0, 0.0, 0.0, 0.0, 0.0, 0.002, -0.044, 0.986, 192.0, 0.0, 16.0, 254.0, 160.0, 30.0, 208.0, 0.0, 0.0, 0.0, 1.7151621822022011E9, 0.0, 2024-05-08 12:56:22.202
22.0, -1419.447531634275, 0.0, 0.0, 0.0, 0.0, 0.0, 0.0, 0.0, 0.002, -0.044, 0.986, 192.0, 0.0, 0.0, 0.0, 0.0, 0.0, 0.0, 0.0, 0.0, 0.0, 1.7151621822022293E9, 0.0, 2024-05-08 12:56:22.202
23.0, -1380.2425718596664, 0.0, 0.0, 0.0, 0.0, 0.0, 0.0, 0.0, 0.002, -0.044, 0.986, 192.0, 0.0, 0.0, 0.0, 0.0, 0.0, 0.0, 0.0, 0.0, 0.0, 1.7151621822022493E9, 0.0, 2024-05-08 12:56:22.202
24.0, -1190.7891858564838, 0.0, 0.0, 0.0, 0.0, 0.0, 0.0, 0.0, 0.002, -0.044, 0.986, 192.0, 0.0, 0.0, 0.0, 0.0, 0.0, 0.0, 0.0, 0.0, 0.0, 1.7151621822022681E9, 0.0, 2024-05-08 12:56:22.202
25.0, -1004.018009187938, 0.0, 0.0, 0.0, 0.0, 0.0, 0.0, 0.0, 0.002, -0.044, 0.986, 192.0, 0.0, 0.0, 0.0, 0.0, 0.0, 0.0, 0.0, 0.0, 0.0, 1.7151621822022898E9, 0.0, 2024-05-08 12:56:22.202
26.0, -1040.2501869499906, 0.0, 0.0, 0.0, 0.0, 0.0, 0.0, 0.0, 0.002, -0.044, 0.986, 192.0, 0.0, 0.0, 0.0, 0.0, 0.0, 0.0, 0.0, 0.0, 0.0, 1.715162182202309E9, 0.0, 2024-05-08 12:56:22.202
27.0, -1128.2937083594452, 0.0, 0.0, 0.0, 0.0, 0.0, 0.0, 0.0, 0.002, -0.044, 0.986, 192.0, 0.0, 0.0, 0.0, 0.0, 0.0, 0.0, 0.0, 0.0, 0.0, 1.7151621822023268E9, 0.0, 2024-05-08 12:56:22.202
28.0, -1096.8001004219175, 0.0, 0.0, 0.0, 0.0, 0.0, 0.0, 0.0, 0.002, -0.044, 0.986, 192.0, 0.0, 0.0, 0.0, 0.0, 0.0, 0.0, 0.0, 0.0, 0.0, 1.715162182202346E9, 0.0, 2024-05-08 12:56:22.202
29.0, -894.6509235681204, 0.0, 0.0, 0.0, 0.0, 0.0, 0.0, 0.0, 0.002, -0.044, 0.986, 192.0, 0.0, 0.0, 0.0, 0.0, 0.0, 0.0, 0.0, 0.0, 0.0, 1.7151621822023647E9, 0.0, 2024-05-08 12:56:22.202
30.0, -725.1352936190717, 0.0, 0.0, 0.0, 0.0, 0.0, 0.0, 0.0, 0.002, -0.044, 0.986, 192.0, 0.0, 0.0, 0.0, 0.0, 0.0, 0.0, 0.0, 0.0, 0.0, 1.7151621822023845E9, 0.0, 2024-05-08 12:56:22.202
31.0, -735.6853170019766, 0.0, 0.0, 0.0, 0.0, 0.0, 0.0, 0.0, 0.002, -0.046, 0.99, 192.0, 0.0, 16.0, 254.0, 144.0, 30.0, 240.0, 0.0, 0.0, 0.0, 1.7151621822024877E9, 0.0, 2024-05-08 12:56:22.202
32.0, -860.4304028070454, 0.0, 0.0, 0.0, 0.0, 0.0, 0.0, 0.0, 0.002, -0.046, 0.99, 192.0, 0.0, 0.0, 0.0, 0.0, 0.0, 0.0, 0.0, 0.0, 0.0, 1.7151621822025115E9, 0.0, 2024-05-08 12:56:22.202
33.0, -842.6160624761657, 0.0, 0.0, 0.0, 0.0, 0.0, 0.0, 0.0, 0.002, -0.046, 0.99, 192.0, 0.0, 0.0, 0.0, 0.0, 0.0, 0.0, 0.0, 0.0, 0.0, 1.7151621822025313E9, 0.0, 2024-05-08 12:56:22.202
34.0, -645.5854351026339, 0.0, 0.0, 0.0, 0.0, 0.0, 0.0, 0.0, 0.002, -0.046, 0.99, 192.0, 0.0, 0.0, 0.0, 0.0, 0.0, 0.0, 0.0, 0.0, 0.0, 1.7151621822025516E9, 0.0, 2024-05-08 12:56:22.202
35.0, -494.9570292183196, 0.0, 0.0, 0.0, 0.0, 0.0, 0.0, 0.0, 0.002, -0.046, 0.99, 192.0, 0.0, 0.0, 0.0, 0.0, 0.0, 0.0, 0.0, 0.0, 0.0, 1.7151621822025707E9, 0.0, 2024-05-08 12:56:22.202
36.0, -527.4341139118808, 0.0, 0.0, 0.0, 0.0, 0.0, 0.0, 0.0, 0.002, -0.046, 0.99, 192.0, 0.0, 0.0, 0.0, 0.0, 0.0, 0.0, 0.0, 0.0, 0.0, 1.7151621822025895E9, 0.0, 2024-05-08 12:56:22.202
37.0, -653.8779322955528, 0.0, 0.0, 0.0, 0.0, 0.0, 0.0, 0.0, 0.002, -0.046, 0.99, 192.0, 0.0, 0.0, 0.0, 0.0, 0.0, 0.0, 0.0, 0.0, 0.0, 1.7151621822026088E9, 0.0, 2024-05-08 12:56:22.202
38.0, -656.7166038413768, 0.0, 0.0, 0.0, 0.0, 0.0, 0.0, 0.0, 0.002, -0.046, 0.99, 192.0, 0.0, 0.0, 0.0, 0.0, 0.0, 0.0, 0.0, 0.0, 0.0, 1.7151621822026296E9, 0.0, 2024-05-08 12:56:22.202
39.0, -490.9337152163643, 0.0, 0.0, 0.0, 0.0, 0.0, 0.0, 0.0, 0.002, -0.046, 0.99, 192.0, 0.0, 0.0, 0.0, 0.0, 0.0, 0.0, 0.0, 0.0, 0.0, 1.7151621822026503E9, 0.0, 2024-05-08 12:56:22.202
40.0, -375.59871382697986, 0.0, 0.0, 0.0, 0.0, 0.0, 0.0, 0.0, 0.002, -0.046, 0.99, 192.0, 0.0, 0.0, 0.0, 0.0, 0.0, 0.0, 0.0, 0.0, 0.0, 1.7151621822026703E9, 0.0, 2024-05-08 12:56:22.202
41.0, -426.0689528070632, 0.0, 0.0, 0.0, 0.0, 0.0, 0.0, 0.0, 0.004, -0.05, 0.994, 192.0, 0.0, 32.0, 254.0, 112.0, 31.0, 16.0, 0.0, 0.0, 0.0, 1.7151621822026913E9, 0.0, 2024-05-08 12:56:22.202
42.0, -592.3882832990031, 0.0, 0.0, 0.0, 0.0, 0.0, 0.0, 0.0, 0.004, -0.05, 0.994, 192.0, 0.0, 0.0, 0.0, 0.0, 0.0, 0.0, 0.0, 0.0, 0.0, 1.7151621822027104E9, 0.0, 2024-05-08 12:56:22.202
43.0, -614.3823998430253, 0.0, 0.0, 0.0, 0.0, 0.0, 0.0, 0.0, 0.004, -0.05, 0.994, 192.0, 0.0, 0.0, 0.0, 0.0, 0.0, 0.0, 0.0, 0.0, 0.0, 1.7151621822027285E9, 0.0, 2024-05-08 12:56:22.202
44.0, -422.5373771831247, 0.0, 0.0, 0.0, 0.0, 0.0, 0.0, 0.0, 0.004, -0.05, 0.994, 192.0, 0.0, 0.0, 0.0, 0.0, 0.0, 0.0, 0.0, 0.0, 0.0, 1.7151621822027493E9, 0.0, 2024-05-08 12:56:22.202
45.0, -295.9370965882655, 0.0, 0.0, 0.0, 0.0, 0.0, 0.0, 0.0, 0.004, -0.05, 0.994, 192.0, 0.0, 0.0, 0.0, 0.0, 0.0, 0.0, 0.0, 0.0, 0.0, 1.7151621822027712E9, 0.0, 2024-05-08 12:56:22.202
46.0, -357.42674558481525, 0.0, 0.0, 0.0, 0.0, 0.0, 0.0, 0.0, 0.004, -0.05, 0.994, 192.0, 0.0, 0.0, 0.0, 0.0, 0.0, 0.0, 0.0, 0.0, 0.0, 1.71516218220279E9, 0.0, 2024-05-08 12:56:22.202
47.0, -562.6604631734447, 0.0, 0.0, 0.0, 0.0, 0.0, 0.0, 0.0, 0.004, -0.05, 0.994, 192.0, 0.0, 0.0, 0.0, 0.0, 0.0, 0.0, 0.0, 0.0, 0.0, 1.7151621822028084E9, 0.0, 2024-05-08 12:56:22.202
48.0, -614.1365306540168, 0.0, 0.0, 0.0, 0.0, 0.0, 0.0, 0.0, 0.004, -0.05, 0.994, 192.0, 0.0, 0.0, 0.0, 0.0, 0.0, 0.0, 0.0, 0.0, 0.0, 1.715162182202826E9, 0.0, 2024-05-08 12:56:22.202
49.0, -436.55192095660226, 0.0, 0.0, 0.0, 0.0, 0.0, 0.0, 0.0, 0.004, -0.05, 0.994, 192.0, 0.0, 0.0, 0.0, 0.0, 0.0, 0.0, 0.0, 0.0, 0.0, 1.7151621822029045E9, 0.0, 2024-05-08 12:56:22.202
50.0, -312.1868148072737, 0.0, 0.0, 0.0, 0.0, 0.0, 0.0, 0.0, 0.004, -0.05, 0.994, 192.0, 0.0, 0.0, 0.0, 0.0, 0.0, 0.0, 0.0, 0.0, 0.0, 1.715162182202924E9, 0.0, 2024-05-08 12:56:22.202
51.0, -398.33043793802716, 0.0, 0.0, 0.0, 0.0, 0.0, 0.0, 0.0, 0.004, -0.052000000000000005, 0.996, 192.0, 0.0, 32.0, 254.0, 96.0, 31.0, 32.0, 0.0, 0.0, 0.0, 1.7151621822029424E9, 0.0, 2024-05-08 12:56:22.202
52.0, -594.8246234446316, 0.0, 0.0, 0.0, 0.0, 0.0, 0.0, 0.0, 0.004, -0.052000000000000005, 0.996, 192.0, 0.0, 0.0, 0.0, 0.0, 0.0, 0.0, 0.0, 0.0, 0.0, 1.7151621822029662E9, 0.0, 2024-05-08 12:56:22.202
53.0, -623.2113389028715, 0.0, 0.0, 0.0, 0.0, 0.0, 0.0, 0.0, 0.004, -0.052000000000000005, 0.996, 192.0, 0.0, 0.0, 0.0, 0.0, 0.0, 0.0, 0.0, 0.0, 0.0, 1.7151621822029865E9, 0.0, 2024-05-08 12:56:22.202
54.0, -478.72966274376665, 0.0, 0.0, 0.0, 0.0, 0.0, 0.0, 0.0, 0.004, -0.052000000000000005, 0.996, 192.0, 0.0, 0.0, 0.0, 0.0, 0.0, 0.0, 0.0, 0.0, 0.0, 1.7151621822030058E9, 0.0, 2024-05-08 12:56:22.203
55.0, -362.4558880872593, 0.0, 0.0, 0.0, 0.0, 0.0, 0.0, 0.0, 0.004, -0.052000000000000005, 0.996, 192.0, 0.0, 0.0, 0.0, 0.0, 0.0, 0.0, 0.0, 0.0, 0.0, 1.715162182203025E9, 0.0, 2024-05-08 12:56:22.203
56.0, -455.77442118816634, 0.0, 0.0, 0.0, 0.0, 0.0, 0.0, 0.0, 0.004, -0.052000000000000005, 0.996, 192.0, 0.0, 0.0, 0.0, 0.0, 0.0, 0.0, 0.0, 0.0, 0.0, 1.715162182203044E9, 0.0, 2024-05-08 12:56:22.203
57.0, -641.0703827226619, 0.0, 0.0, 0.0, 0.0, 0.0, 0.0, 0.0, 0.004, -0.052000000000000005, 0.996, 192.0, 0.0, 0.0, 0.0, 0.0, 0.0, 0.0, 0.0, 0.0, 0.0, 1.7151621822030685E9, 0.0, 2024-05-08 12:56:22.203
58.0, -675.7602901172984, 0.0, 0.0, 0.0, 0.0, 0.0, 0.0, 0.0, 0.004, -0.052000000000000005, 0.996, 192.0, 0.0, 0.0, 0.0, 0.0, 0.0, 0.0, 0.0, 0.0, 0.0, 1.7151621822030852E9, 0.0, 2024-05-08 12:56:22.203
59.0, -538.6323378839896, 0.0, 0.0, 0.0, 0.0, 0.0, 0.0, 0.0, 0.004, -0.052000000000000005, 0.996, 192.0, 0.0, 0.0, 0.0, 0.0, 0.0, 0.0, 0.0, 0.0, 0.0, 1.7151621822030993E9, 0.0, 2024-05-08 12:56:22.203
60.0, -418.89404283690965, 0.0, 0.0, 0.0, 0.0, 0.0, 0.0, 0.0, 0.004, -0.052000000000000005, 0.996, 192.0, 0.0, 0.0, 0.0, 0.0, 0.0, 0.0, 0.0, 0.0, 0.0, 1.7151621822031133E9, 0.0, 2024-05-08 12:56:22.203
61.0, -509.64212532545633, 0.0, 0.0, 0.0, 0.0, 0.0, 0.0, 0.0, 0.002, -0.052000000000000005, 0.988, 192.0, 0.0, 16.0, 254.0, 96.0, 30.0, 224.0, 0.0, 0.0, 0.0, 1.7151621822031405E9, 0.0, 2024-05-08 12:56:22.203
62.0, -707.1197875880943, 0.0, 0.0, 0.0, 0.0, 0.0, 0.0, 0.0, 0.002, -0.052000000000000005, 0.988, 192.0, 0.0, 0.0, 0.0, 0.0, 0.0, 0.0, 0.0, 0.0, 0.0, 1.7151621822031598E9, 0.0, 2024-05-08 12:56:22.203
63.0, -756.2936253897698, 0.0, 0.0, 0.0, 0.0, 0.0, 0.0, 0.0, 0.002, -0.052000000000000005, 0.988, 192.0, 0.0, 0.0, 0.0, 0.0, 0.0, 0.0, 0.0, 0.0, 0.0, 1.7151621822031736E9, 0.0, 2024-05-08 12:56:22.203
64.0, -627.5028738382905, 0.0, 0.0, 0.0, 0.0, 0.0, 0.0, 0.0, 0.002, -0.052000000000000005, 0.988, 192.0, 0.0, 0.0, 0.0, 0.0, 0.0, 0.0, 0.0, 0.0, 0.0, 1.7151621822031872E9, 0.0, 2024-05-08 12:56:22.203
65.0, -486.4410145808476, 0.0, 0.0, 0.0, 0.0, 0.0, 0.0, 0.0, 0.002, -0.052000000000000005, 0.988, 192.0, 0.0, 0.0, 0.0, 0.0, 0.0, 0.0, 0.0, 0.0, 0.0, 1.715162182203204E9, 0.0, 2024-05-08 12:56:22.203
66.0, -578.552553481168, 0.0, 0.0, 0.0, 0.0, 0.0, 0.0, 0.0, 0.002, -0.052000000000000005, 0.988, 192.0, 0.0, 0.0, 0.0, 0.0, 0.0, 0.0, 0.0, 0.0, 0.0, 1.7151621822032676E9, 0.0, 2024-05-08 12:56:22.203
67.0, -769.1235267071161, 0.0, 0.0, 0.0, 0.0, 0.0, 0.0, 0.0, 0.002, -0.052000000000000005, 0.988, 192.0, 0.0, 0.0, 0.0, 0.0, 0.0, 0.0, 0.0, 0.0, 0.0, 1.7151621822032819E9, 0.0, 2024-05-08 12:56:22.203
68.0, -793.6433903745879, 0.0, 0.0, 0.0, 0.0, 0.0, 0.0, 0.0, 0.002, -0.052000000000000005, 0.988, 192.0, 0.0, 0.0, 0.0, 0.0, 0.0, 0.0, 0.0, 0.0, 0.0, 1.7151621822032957E9, 0.0, 2024-05-08 12:56:22.203
69.0, -650.3016531827037, 0.0, 0.0, 0.0, 0.0, 0.0, 0.0, 0.0, 0.002, -0.052000000000000005, 0.988, 192.0, 0.0, 0.0, 0.0, 0.0, 0.0, 0.0, 0.0, 0.0, 0.0, 1.7151621822033095E9, 0.0, 2024-05-08 12:56:22.203
70.0, -502.556622333124, 0.0, 0.0, 0.0, 0.0, 0.0, 0.0, 0.0, 0.002, -0.052000000000000005, 0.988, 192.0, 0.0, 0.0, 0.0, 0.0, 0.0, 0.0, 0.0, 0.0, 0.0, 1.7151621822033236E9, 0.0, 2024-05-08 12:56:22.203
71.0, -562.9063323624531, 0.0, 0.0, 0.0, 0.0, 0.0, 0.0, 0.0, 0.002, -0.052000000000000005, 0.988, 192.0, 0.0, 0.0, 254.0, 112.0, 31.0, 16.0, 0.0, 0.0, 0.0, 1.715162182203339E9, 0.0, 2024-05-08 12:56:22.203
72.0, -721.223738339393, 0.0, 0.0, 0.0, 0.0, 0.0, 0.0, 0.0, 0.002, -0.052000000000000005, 0.988, 192.0, 0.0, 0.0, 0.0, 0.0, 0.0, 0.0, 0.0, 0.0, 0.0, 1.7151621822033534E9, 0.0, 2024-05-08 12:56:22.203
73.0, -761.2110091699374, 0.0, 0.0, 0.0, 0.0, 0.0, 0.0, 0.0, 0.002, -0.052000000000000005, 0.988, 192.0, 0.0, 0.0, 0.0, 0.0, 0.0, 0.0, 0.0, 0.0, 0.0, 1.7151621822033672E9, 0.0, 2024-05-08 12:56:22.203
74.0, -602.424216559436, 0.0, 0.0, 0.0, 0.0, 0.0, 0.0, 0.0, 0.002, -0.052000000000000005, 0.988, 192.0, 0.0, 0.0, 0.0, 0.0, 0.0, 0.0, 0.0, 0.0, 0.0, 1.7151621822033808E9, 0.0, 2024-05-08 12:56:22.203
75.0, -473.4546510523142, 0.0, 0.0, 0.0, 0.0, 0.0, 0.0, 0.0, 0.002, -0.052000000000000005, 0.988, 192.0, 0.0, 0.0, 0.0, 0.0, 0.0, 0.0, 0.0, 0.0, 0.0, 1.7151621822033951E9, 0.0, 2024-05-08 12:56:22.203
76.0, -521.6897155868669, 0.0, 0.0, 0.0, 0.0, 0.0, 0.0, 0.0, 0.002, -0.052000000000000005, 0.988, 192.0, 0.0, 0.0, 0.0, 0.0, 0.0, 0.0, 0.0, 0.0, 0.0, 1.7151621822034087E9, 0.0, 2024-05-08 12:56:22.203
77.0, -652.6485863505109, 0.0, 0.0, 0.0, 0.0, 0.0, 0.0, 0.0, 0.002, -0.052000000000000005, 0.988, 192.0, 0.0, 0.0, 0.0, 0.0, 0.0, 0.0, 0.0, 0.0, 0.0, 1.7151621822034225E9, 0.0, 2024-05-08 12:56:22.203
78.0, -687.9643425898961, 0.0, 0.0, 0.0, 0.0, 0.0, 0.0, 0.0, 0.002, -0.052000000000000005, 0.988, 192.0, 0.0, 0.0, 0.0, 0.0, 0.0, 0.0, 0.0, 0.0, 0.0, 1.7151621822034383E9, 0.0, 2024-05-08 12:56:22.203
79.0, -523.9248900323976, 0.0, 0.0, 0.0, 0.0, 0.0, 0.0, 0.0, 0.002, -0.052000000000000005, 0.988, 192.0, 0.0, 0.0, 0.0, 0.0, 0.0, 0.0, 0.0, 0.0, 0.0, 1.715162182203452E9, 0.0, 2024-05-08 12:56:22.203
80.0, -353.02345192711977, 0.0, 0.0, 0.0, 0.0, 0.0, 0.0, 0.0, 0.002, -0.052000000000000005, 0.988, 192.0, 0.0, 0.0, 0.0, 0.0, 0.0, 0.0, 0.0, 0.0, 0.0, 1.715162182203466E9, 0.0, 2024-05-08 12:56:22.203
81.0, -374.9952167266866, 0.0, 0.0, 0.0, 0.0, 0.0, 0.0, 0.0, 0.004, -0.044, 1.022, 192.0, 0.0, 32.0, 254.0, 160.0, 31.0, 240.0, 0.0, 0.0, 0.0, 1.7151621822034795E9, 0.0, 2024-05-08 12:56:22.203
82.0, -512.8384247825652, 0.0, 0.0, 0.0, 0.0, 0.0, 0.0, 0.0, 0.004, -0.044, 1.022, 192.0, 0.0, 0.0, 0.0, 0.0, 0.0, 0.0, 0.0, 0.0, 0.0, 1.7151621822034943E9, 0.0, 2024-05-08 12:56:22.203
83.0, -533.558491892635, 0.0, 0.0, 0.0, 0.0, 0.0, 0.0, 0.0, 0.004, -0.044, 1.022, 192.0, 0.0, 0.0, 0.0, 0.0, 0.0, 0.0, 0.0, 0.0, 0.0, 1.7151621822035084E9, 0.0, 2024-05-08 12:56:22.203
84.0, -362.0759084315191, 0.0, 0.0, 0.0, 0.0, 0.0, 0.0, 0.0, 0.004, -0.044, 1.022, 192.0, 0.0, 0.0, 0.0, 0.0, 0.0, 0.0, 0.0, 0.0, 0.0, 1.7151621822035556E9, 0.0, 2024-05-08 12:56:22.203
85.0, -202.61856348735853, 0.0, 0.0, 0.0, 0.0, 0.0, 0.0, 0.0, 0.004, -0.044, 1.022, 192.0, 0.0, 0.0, 0.0, 0.0, 0.0, 0.0, 0.0, 0.0, 0.0, 1.71516218220357E9, 0.0, 2024-05-08 12:56:22.203
86.0, -195.55541223948148, 0.0, 0.0, 0.0, 0.0, 0.0, 0.0, 0.0, 0.004, -0.044, 1.022, 192.0, 0.0, 0.0, 0.0, 0.0, 0.0, 0.0, 0.0, 0.0, 0.0, 1.7151621822035837E9, 0.0, 2024-05-08 12:56:22.203
87.0, -346.8320187129997, 0.0, 0.0, 0.0, 0.0, 0.0, 0.0, 0.0, 0.004, -0.044, 1.022, 192.0, 0.0, 0.0, 0.0, 0.0, 0.0, 0.0, 0.0, 0.0, 0.0, 1.7151621822035973E9, 0.0, 2024-05-08 12:56:22.203
88.0, -388.0709872330412, 0.0, 0.0, 0.0, 0.0, 0.0, 0.0, 0.0, 0.004, -0.044, 1.022, 192.0, 0.0, 0.0, 0.0, 0.0, 0.0, 0.0, 0.0, 0.0, 0.0, 1.7151621822036111E9, 0.0, 2024-05-08 12:56:22.203
89.0, -193.61081047186977, 0.0, 0.0, 0.0, 0.0, 0.0, 0.0, 0.0, 0.004, -0.044, 1.022, 192.0, 0.0, 0.0, 0.0, 0.0, 0.0, 0.0, 0.0, 0.0, 0.0, 1.715162182203625E9, 0.0, 2024-05-08 12:56:22.203
90.0, -36.16512252868683, 0.0, 0.0, 0.0, 0.0, 0.0, 0.0, 0.0, 0.004, -0.044, 1.022, 192.0, 0.0, 0.0, 0.0, 0.0, 0.0, 0.0, 0.0, 0.0, 0.0, 1.7151621822036388E9, 0.0, 2024-05-08 12:56:22.203
91.0, -53.018337847988356, 0.0, 0.0, 0.0, 0.0, 0.0, 0.0, 0.0, 0.004, -0.044, 1.022, 192.0, 0.0, 0.0, 254.0, 144.0, 31.0, 192.0, 0.0, 0.0, 0.0, 1.7151621822036548E9, 0.0, 2024-05-08 12:56:22.203
92.0, -224.92560445375497, 0.0, 0.0, 0.0, 0.0, 0.0, 0.0, 0.0, 0.004, -0.044, 1.022, 192.0, 0.0, 0.0, 0.0, 0.0, 0.0, 0.0, 0.0, 0.0, 0.0, 1.7151621822036693E9, 0.0, 2024-05-08 12:56:22.203
93.0, -275.50760215611484, 0.0, 0.0, 0.0, 0.0, 0.0, 0.0, 0.0, 0.004, -0.044, 1.022, 192.0, 0.0, 0.0, 0.0, 0.0, 0.0, 0.0, 0.0, 0.0, 0.0, 1.715162182203683E9, 0.0, 2024-05-08 12:56:22.203
94.0, -118.19602467966375, 0.0, 0.0, 0.0, 0.0, 0.0, 0.0, 0.0, 0.004, -0.044, 1.022, 192.0, 0.0, 0.0, 0.0, 0.0, 0.0, 0.0, 0.0, 0.0, 0.0, 1.7151621822036967E9, 0.0, 2024-05-08 12:56:22.203
95.0, 33.10293353830976, 0.0, 0.0, 0.0, 0.0, 0.0, 0.0, 0.0, 0.004, -0.044, 1.022, 192.0, 0.0, 0.0, 0.0, 0.0, 0.0, 0.0, 0.0, 0.0, 0.0, 1.7151621822037108E9, 0.0, 2024-05-08 12:56:22.203
96.0, -3.173947712653603, 0.0, 0.0, 0.0, 0.0, 0.0, 0.0, 0.0, 0.004, -0.044, 1.022, 192.0, 0.0, 0.0, 0.0, 0.0, 0.0, 0.0, 0.0, 0.0, 0.0, 1.7151621822037246E9, 0.0, 2024-05-08 12:56:22.203
97.0, -172.8236881284342, 0.0, 0.0, 0.0, 0.0, 0.0, 0.0, 0.0, 0.004, -0.044, 1.022, 192.0, 0.0, 0.0, 0.0, 0.0, 0.0, 0.0, 0.0, 0.0, 0.0, 1.7151621822037387E9, 0.0, 2024-05-08 12:56:22.203
98.0, -192.49322324910443, 0.0, 0.0, 0.0, 0.0, 0.0, 0.0, 0.0, 0.004, -0.044, 1.022, 192.0, 0.0, 0.0, 0.0, 0.0, 0.0, 0.0, 0.0, 0.0, 0.0, 1.715162182203754E9, 0.0, 2024-05-08 12:56:22.203
99.0, -60.081489095865386, 0.0, 0.0, 0.0, 0.0, 0.0, 0.0, 0.0, 0.004, -0.044, 1.022, 192.0, 0.0, 0.0, 0.0, 0.0, 0.0, 0.0, 0.0, 0.0, 0.0, 1.715162182203768E9, 0.0, 2024-05-08 12:56:22.203
100.0, 100.15816690423095, 0.0, 0.0, 0.0, 0.0, 0.0, 0.0, 0.0, 0.004, -0.044, 1.022, 192.0, 0.0, 0.0, 0.0, 0.0, 0.0, 0.0, 0.0, 0.0, 0.0, 1.7151621822037816E9, 0.0, 2024-05-08 12:56:22.203
101.0, 74.40895729171721, 0.0, 0.0, 0.0, 0.0, 0.0, 0.0, 0.0, -0.002, -0.044, 0.984, 192.0, 255.0, 240.0, 254.0, 160.0, 30.0, 192.0, 0.0, 0.0, 0.0, 1.7151621822037957E9, 0.0, 2024-05-08 12:56:22.203
102.0, -109.14356817526439, 0.0, 0.0, 0.0, 0.0, 0.0, 0.0, 0.0, -0.002, -0.044, 0.984, 192.0, 0.0, 0.0, 0.0, 0.0, 0.0, 0.0, 0.0, 0.0, 0.0, 1.7151621822038438E9, 0.0, 2024-05-08 12:56:22.203
103.0, -167.59337992589235, 0.0, 0.0, 0.0, 0.0, 0.0, 0.0, 0.0, -0.002, -0.044, 0.984, 192.0, 0.0, 0.0, 0.0, 0.0, 0.0, 0.0, 0.0, 0.0, 0.0, 1.7151621822038603E9, 0.0, 2024-05-08 12:56:22.203
104.0, -13.343991439818316, 0.0, 0.0, 0.0, 0.0, 0.0, 0.0, 0.0, -0.002, -0.044, 0.984, 192.0, 0.0, 0.0, 0.0, 0.0, 0.0, 0.0, 0.0, 0.0, 0.0, 1.7151621822038767E9, 0.0, 2024-05-08 12:56:22.203
105.0, 114.86561475582299, 0.0, 0.0, 0.0, 0.0, 0.0, 0.0, 0.0, -0.002, -0.044, 0.984, 192.0, 0.0, 0.0, 0.0, 0.0, 0.0, 0.0, 0.0, 0.0, 0.0, 1.715162182682284E9, 0.0, 2024-05-08 12:56:22.682
106.0, 82.16501261770877, 0.0, 0.0, 0.0, 0.0, 0.0, 0.0, 0.0, -0.002, -0.044, 0.984, 192.0, 0.0, 0.0, 0.0, 0.0, 0.0, 0.0, 0.0, 0.0, 0.0, 1.715162182682358E9, 0.0, 2024-05-08 12:56:22.682
107.0, -80.01924514999928, 0.0, 0.0, 0.0, 0.0, 0.0, 0.0, 0.0, -0.002, -0.044, 0.984, 192.0, 0.0, 0.0, 0.0, 0.0, 0.0, 0.0, 0.0, 0.0, 0.0, 1.7151621826824002E9, 0.0, 2024-05-08 12:56:22.682
108.0, -142.7382400915909, 0.0, 0.0, 0.0, 0.0, 0.0, 0.0, 0.0, -0.002, -0.044, 0.984, 192.0, 0.0, 0.0, 0.0, 0.0, 0.0, 0.0, 0.0, 0.0, 0.0, 1.7151621826824424E9, 0.0, 2024-05-08 12:56:22.682
109.0, -14.506282151494284, 0.0, 0.0, 0.0, 0.0, 0.0, 0.0, 0.0, -0.002, -0.044, 0.984, 192.0, 0.0, 0.0, 0.0, 0.0, 0.0, 0.0, 0.0, 0.0, 0.0, 1.715162182682474E9, 0.0, 2024-05-08 12:56:22.682
110.0, 107.57894606339289, 0.0, 0.0, 0.0, 0.0, 0.0, 0.0, 0.0, -0.002, -0.044, 0.984, 192.0, 0.0, 0.0, 0.0, 0.0, 0.0, 0.0, 0.0, 0.0, 0.0, 1.7151621826825054E9, 0.0, 2024-05-08 12:56:22.682
111.0, 80.86861143930095, 0.0, 0.0, 0.0, 0.0, 0.0, 0.0, 0.0, -0.002, -0.044, 0.984, 192.0, 0.0, 0.0, 254.0, 160.0, 30.0, 240.0, 0.0, 0.0, 0.0, 1.7151621826825385E9, 0.0, 2024-05-08 12:56:22.682
112.0, -102.63921053877003, 0.0, 0.0, 0.0, 0.0, 0.0, 0.0, 0.0, -0.002, -0.044, 0.984, 192.0, 0.0, 0.0, 0.0, 0.0, 0.0, 0.0, 0.0, 0.0, 0.0, 1.7151621826825707E9, 0.0, 2024-05-08 12:56:22.682
113.0, -176.64583643029172, 0.0, 0.0, 0.0, 0.0, 0.0, 0.0, 0.0, -0.002, -0.044, 0.984, 192.0, 0.0, 0.0, 0.0, 0.0, 0.0, 0.0, 0.0, 0.0, 0.0, 1.7151621826826017E9, 0.0, 2024-05-08 12:56:22.682
114.0, -44.636433677248206, 0.0, 0.0, 0.0, 0.0, 0.0, 0.0, 0.0, -0.002, -0.044, 0.984, 192.0, 0.0, 0.0, 0.0, 0.0, 0.0, 0.0, 0.0, 0.0, 0.0, 1.7151621826826327E9, 0.0, 2024-05-08 12:56:22.682
115.0, 104.7849780064795, 0.0, 0.0, 0.0, 0.0, 0.0, 0.0, 0.0, -0.002, -0.044, 0.984, 192.0, 0.0, 0.0, 0.0, 0.0, 0.0, 0.0, 0.0, 0.0, 0.0, 1.715162182682664E9, 0.0, 2024-05-08 12:56:22.682
116.0, 70.78797468995747, 0.0, 0.0, 0.0, 0.0, 0.0, 0.0, 0.0, -0.002, -0.044, 0.984, 192.0, 0.0, 0.0, 0.0, 0.0, 0.0, 0.0, 0.0, 0.0, 0.0, 1.715162182682695E9, 0.0, 2024-05-08 12:56:22.682
117.0, -110.23880365357444, 0.0, 0.0, 0.0, 0.0, 0.0, 0.0, 0.0, -0.002, -0.044, 0.984, 192.0, 0.0, 0.0, 0.0, 0.0, 0.0, 0.0, 0.0, 0.0, 0.0, 1.715162182682728E9, 0.0, 2024-05-08 12:56:22.682
118.0, -192.0685401044536, 0.0, 0.0, 0.0, 0.0, 0.0, 0.0, 0.0, -0.002, -0.044, 0.984, 192.0, 0.0, 0.0, 0.0, 0.0, 0.0, 0.0, 0.0, 0.0, 0.0, 1.7151621826827588E9, 0.0, 2024-05-08 12:56:22.682
119.0, -56.795782660935245, 0.0, 0.0, 0.0, 0.0, 0.0, 0.0, 0.0, -0.002, -0.044, 0.984, 192.0, 0.0, 0.0, 0.0, 0.0, 0.0, 0.0, 0.0, 0.0, 0.0, 1.715162182682917E9, 0.0, 2024-05-08 12:56:22.682
120.0, 76.68883522615853, 0.0, 0.0, 0.0, 0.0, 0.0, 0.0, 0.0, -0.002, -0.044, 0.984, 192.0, 0.0, 0.0, 0.0, 0.0, 0.0, 0.0, 0.0, 0.0, 0.0, 1.715162182682933E9, 0.0, 2024-05-08 12:56:22.682
121.0, 46.26811102248562, 0.0, 0.0, 0.0, 0.0, 0.0, 0.0, 0.0, -0.002, -0.048, 0.992, 192.0, 255.0, 240.0, 254.0, 128.0, 31.0, 0.0, 0.0, 0.0, 0.0, 1.7151621826829493E9, 0.0, 2024-05-08 12:56:22.682
122.0, -129.21543469613013, 0.0, 0.0, 0.0, 0.0, 0.0, 0.0, 0.0, -0.002, -0.048, 0.992, 192.0, 0.0, 0.0, 0.0, 0.0, 0.0, 0.0, 0.0, 0.0, 0.0, 1.7151621826829643E9, 0.0, 2024-05-08 12:56:22.682
123.0, -195.77892968403455, 0.0, 0.0, 0.0, 0.0, 0.0, 0.0, 0.0, -0.002, -0.048, 0.992, 192.0, 0.0, 0.0, 0.0, 0.0, 0.0, 0.0, 0.0, 0.0, 0.0, 1.7151621826829784E9, 0.0, 2024-05-08 12:56:22.682
124.0, -51.36430875829563, 0.0, 0.0, 0.0, 0.0, 0.0, 0.0, 0.0, -0.002, -0.048, 0.992, 192.0, 0.0, 0.0, 0.0, 0.0, 0.0, 0.0, 0.0, 0.0, 0.0, 1.7151621826829944E9, 0.0, 2024-05-08 12:56:22.682
125.0, 86.85887895332324, 0.0, 0.0, 0.0, 0.0, 0.0, 0.0, 0.0, -0.002, -0.048, 0.992, 192.0, 0.0, 0.0, 0.0, 0.0, 0.0, 0.0, 0.0, 0.0, 0.0, 1.715162182683008E9, 0.0, 2024-05-08 12:56:22.683
126.0, 63.6130647198039, 0.0, 0.0, 0.0, 0.0, 0.0, 0.0, 0.0, -0.002, -0.048, 0.992, 192.0, 0.0, 0.0, 0.0, 0.0, 0.0, 0.0, 0.0, 0.0, 0.0, 1.715162182683022E9, 0.0, 2024-05-08 12:56:22.683
127.0, -79.03576839396577, 0.0, 0.0, 0.0, 0.0, 0.0, 0.0, 0.0, -0.002, -0.048, 0.992, 192.0, 0.0, 0.0, 0.0, 0.0, 0.0, 0.0, 0.0, 0.0, 0.0, 1.7151621826830378E9, 0.0, 2024-05-08 12:56:22.683
128.0, -135.31746093242896, 0.0, 0.0, 0.0, 0.0, 0.0, 0.0, 0.0, -0.002, -0.048, 0.992, 192.0, 0.0, 0.0, 0.0, 0.0, 0.0, 0.0, 0.0, 0.0, 0.0, 1.7151621826830516E9, 0.0, 2024-05-08 12:56:22.683
129.0, -10.013581515977563, 0.0, 0.0, 0.0, 0.0, 0.0, 0.0, 0.0, -0.002, -0.048, 0.992, 192.0, 0.0, 0.0, 0.0, 0.0, 0.0, 0.0, 0.0, 0.0, 0.0, 1.715162182683066E9, 0.0, 2024-05-08 12:56:22.683
130.0, 147.8120860829456, 0.0, 0.0, 0.0, 0.0, 0.0, 0.0, 0.0, -0.002, -0.048, 0.992, 192.0, 0.0, 0.0, 0.0, 0.0, 0.0, 0.0, 0.0, 0.0, 0.0, 1.7151621826830816E9, 0.0, 2024-05-08 12:56:22.683
131.0, 153.8694088303338, 0.0, 0.0, 0.0, 0.0, 0.0, 0.0, 0.0, -0.002, -0.048, 0.992, 192.0, 0.0, 0.0, 254.0, 80.0, 31.0, 0.0, 0.0, 0.0, 0.0, 1.7151621826830955E9, 0.0, 2024-05-08 12:56:22.683
132.0, 0.29057267791899183, 0.0, 0.0, 0.0, 0.0, 0.0, 0.0, 0.0, -0.002, -0.048, 0.992, 192.0, 0.0, 0.0, 0.0, 0.0, 0.0, 0.0, 0.0, 0.0, 0.0, 1.7151621826831095E9, 0.0, 2024-05-08 12:56:22.683
133.0, -44.68113716615882, 0.0, 0.0, 0.0, 0.0, 0.0, 0.0, 0.0, -0.002, -0.048, 0.992, 192.0, 0.0, 0.0, 0.0, 0.0, 0.0, 0.0, 0.0, 0.0, 0.0, 1.715162182683124E9, 0.0, 2024-05-08 12:56:22.683
134.0, 74.49836426953844, 0.0, 0.0, 0.0, 0.0, 0.0, 0.0, 0.0, -0.002, -0.048, 0.992, 192.0, 0.0, 0.0, 0.0, 0.0, 0.0, 0.0, 0.0, 0.0, 0.0, 1.7151621826831377E9, 0.0, 2024-05-08 12:56:22.683
135.0, 241.30943313949504, 0.0, 0.0, 0.0, 0.0, 0.0, 0.0, 0.0, -0.002, -0.048, 0.992, 192.0, 0.0, 0.0, 0.0, 0.0, 0.0, 0.0, 0.0, 0.0, 0.0, 1.7151621826831515E9, 0.0, 2024-05-08 12:56:22.683
136.0, 214.10736013738637, 0.0, 0.0, 0.0, 0.0, 0.0, 0.0, 0.0, -0.002, -0.048, 0.992, 192.0, 0.0, 0.0, 0.0, 0.0, 0.0, 0.0, 0.0, 0.0, 0.0, 1.7151621826831653E9, 0.0, 2024-05-08 12:56:22.683
137.0, 32.43238120465055, 0.0, 0.0, 0.0, 0.0, 0.0, 0.0, 0.0, -0.002, -0.048, 0.992, 192.0, 0.0, 0.0, 0.0, 0.0, 0.0, 0.0, 0.0, 0.0, 0.0, 1.7151621826832144E9, 0.0, 2024-05-08 12:56:22.683
138.0, -14.014543773477529, 0.0, 0.0, 0.0, 0.0, 0.0, 0.0, 0.0, -0.002, -0.048, 0.992, 192.0, 0.0, 0.0, 0.0, 0.0, 0.0, 0.0, 0.0, 0.0, 0.0, 1.7151621826832285E9, 0.0, 2024-05-08 12:56:22.683
139.0, 103.62268729480354, 0.0, 0.0, 0.0, 0.0, 0.0, 0.0, 0.0, -0.002, -0.048, 0.992, 192.0, 0.0, 0.0, 0.0, 0.0, 0.0, 0.0, 0.0, 0.0, 0.0, 1.7151621826832423E9, 0.0, 2024-05-08 12:56:22.683
140.0, 244.81865701897826, 0.0, 0.0, 0.0, 0.0, 0.0, 0.0, 0.0, -0.002, -0.048, 0.992, 192.0, 0.0, 0.0, 0.0, 0.0, 0.0, 0.0, 0.0, 0.0, 0.0, 1.7151621826832561E9, 0.0, 2024-05-08 12:56:22.683
141.0, 242.22585466216265, 0.0, 0.0, 0.0, 0.0, 0.0, 0.0, 0.0, -0.002, -0.048, 0.992, 192.0, 0.0, 0.0, 254.0, 64.0, 31.0, 80.0, 0.0, 0.0, 0.0, 1.71516218268327E9, 0.0, 2024-05-08 12:56:22.683
142.0, 60.79674491843521, 0.0, 0.0, 0.0, 0.0, 0.0, 0.0, 0.0, -0.002, -0.048, 0.992, 192.0, 0.0, 0.0, 0.0, 0.0, 0.0, 0.0, 0.0, 0.0, 0.0, 1.7151621826832848E9, 0.0, 2024-05-08 12:56:22.683
143.0, -34.8016661169131, 0.0, 0.0, 0.0, 0.0, 0.0, 0.0, 0.0, -0.002, -0.048, 0.992, 192.0, 0.0, 0.0, 0.0, 0.0, 0.0, 0.0, 0.0, 0.0, 0.0, 1.7151621826833005E9, 0.0, 2024-05-08 12:56:22.683
144.0, 94.19025113466397, 0.0, 0.0, 0.0, 0.0, 0.0, 0.0, 0.0, -0.002, -0.048, 0.992, 192.0, 0.0, 0.0, 0.0, 0.0, 0.0, 0.0, 0.0, 0.0, 0.0, 1.715162182683314E9, 0.0, 2024-05-08 12:56:22.683
145.0, 261.4036514048161, 0.0, 0.0, 0.0, 0.0, 0.0, 0.0, 0.0, -0.002, -0.048, 0.992, 192.0, 0.0, 0.0, 0.0, 0.0, 0.0, 0.0, 0.0, 0.0, 0.0, 1.715162182683328E9, 0.0, 2024-05-08 12:56:22.683
146.0, 252.64176757833573, 0.0, 0.0, 0.0, 0.0, 0.0, 0.0, 0.0, -0.002, -0.048, 0.992, 192.0, 0.0, 0.0, 0.0, 0.0, 0.0, 0.0, 0.0, 0.0, 0.0, 1.715162182683342E9, 0.0, 2024-05-08 12:56:22.683
147.0, 85.58482951937074, 0.0, 0.0, 0.0, 0.0, 0.0, 0.0, 0.0, -0.002, -0.048, 0.992, 192.0, 0.0, 0.0, 0.0, 0.0, 0.0, 0.0, 0.0, 0.0, 0.0, 1.7151621826833558E9, 0.0, 2024-05-08 12:56:22.683
148.0, 15.847386818812707, 0.0, 0.0, 0.0, 0.0, 0.0, 0.0, 0.0, -0.002, -0.048, 0.992, 192.0, 0.0, 0.0, 0.0, 0.0, 0.0, 0.0, 0.0, 0.0, 0.0, 1.7151621826833696E9, 0.0, 2024-05-08 12:56:22.683
149.0, 144.39226918128364, 0.0, 0.0, 0.0, 0.0, 0.0, 0.0, 0.0, -0.002, -0.048, 0.992, 192.0, 0.0, 0.0, 0.0, 0.0, 0.0, 0.0, 0.0, 0.0, 0.0, 1.7151621826833837E9, 0.0, 2024-05-08 12:56:22.683
150.0, 299.759244890123, 0.0, 0.0, 0.0, 0.0, 0.0, 0.0, 0.0, -0.002, -0.048, 0.992, 192.0, 0.0, 0.0, 0.0, 0.0, 0.0, 0.0, 0.0, 0.0, 0.0, 1.7151621826833992E9, 0.0, 2024-05-08 12:56:22.683
151.0, 300.049817568042, 0.0, 0.0, 0.0, 0.0, 0.0, 0.0, 0.0, 0.002, -0.052000000000000005, 0.998, 192.0, 0.0, 16.0, 254.0, 96.0, 31.0, 48.0, 0.0, 0.0, 0.0, 1.7151621826834128E9, 0.0, 2024-05-08 12:56:22.683
152.0, 123.29222241547376, 0.0, 0.0, 0.0, 0.0, 0.0, 0.0, 0.0, 0.002, -0.052000000000000005, 0.998, 192.0, 0.0, 0.0, 0.0, 0.0, 0.0, 0.0, 0.0, 0.0, 0.0, 1.7151621826834276E9, 0.0, 2024-05-08 12:56:22.683
153.0, 37.01448881798849, 0.0, 0.0, 0.0, 0.0, 0.0, 0.0, 0.0, 0.002, -0.052000000000000005, 0.998, 192.0, 0.0, 0.0, 0.0, 0.0, 0.0, 0.0, 0.0, 0.0, 0.0, 1.7151621826834414E9, 0.0, 2024-05-08 12:56:22.683
154.0, 207.2900780785177, 0.0, 0.0, 0.0, 0.0, 0.0, 0.0, 0.0, 0.002, -0.052000000000000005, 0.998, 192.0, 0.0, 0.0, 0.0, 0.0, 0.0, 0.0, 0.0, 0.0, 0.0, 1.7151621826834908E9, 0.0, 2024-05-08 12:56:22.683
155.0, 370.9048474913654, 0.0, 0.0, 0.0, 0.0, 0.0, 0.0, 0.0, 0.002, -0.052000000000000005, 0.998, 192.0, 0.0, 0.0, 0.0, 0.0, 0.0, 0.0, 0.0, 0.0, 0.0, 1.7151621826835053E9, 0.0, 2024-05-08 12:56:22.683
156.0, 371.6424550583905, 0.0, 0.0, 0.0, 0.0, 0.0, 0.0, 0.0, 0.002, -0.052000000000000005, 0.998, 192.0, 0.0, 0.0, 0.0, 0.0, 0.0, 0.0, 0.0, 0.0, 0.0, 1.7151621826835191E9, 0.0, 2024-05-08 12:56:22.683
157.0, 211.22398510265174, 0.0, 0.0, 0.0, 0.0, 0.0, 0.0, 0.0, 0.002, -0.052000000000000005, 0.998, 192.0, 0.0, 0.0, 0.0, 0.0, 0.0, 0.0, 0.0, 0.0, 0.0, 1.715162182683535E9, 0.0, 2024-05-08 12:56:22.683
158.0, 128.187254451186, 0.0, 0.0, 0.0, 0.0, 0.0, 0.0, 0.0, 0.002, -0.052000000000000005, 0.998, 192.0, 0.0, 0.0, 0.0, 0.0, 0.0, 0.0, 0.0, 0.0, 0.0, 1.7151621826835492E9, 0.0, 2024-05-08 12:56:22.683
159.0, 254.87694202386643, 0.0, 0.0, 0.0, 0.0, 0.0, 0.0, 0.0, 0.002, -0.052000000000000005, 0.998, 192.0, 0.0, 0.0, 0.0, 0.0, 0.0, 0.0, 0.0, 0.0, 0.0, 1.7151621826835632E9, 0.0, 2024-05-08 12:56:22.683
160.0, 426.56069118508, 0.0, 0.0, 0.0, 0.0, 0.0, 0.0, 0.0, 0.002, -0.052000000000000005, 0.998, 192.0, 0.0, 0.0, 0.0, 0.0, 0.0, 0.0, 0.0, 0.0, 0.0, 1.715162182683577E9, 0.0, 2024-05-08 12:56:22.683
161.0, 424.7054963952895, 0.0, 0.0, 0.0, 0.0, 0.0, 0.0, 0.0, 0.002, -0.052000000000000005, 0.998, 192.0, 0.0, 0.0, 254.0, 144.0, 30.0, 240.0, 0.0, 0.0, 0.0, 1.715162182683591E9, 0.0, 2024-05-08 12:56:22.683
162.0, 263.9293985282658, 0.0, 0.0, 0.0, 0.0, 0.0, 0.0, 0.0, 0.002, -0.052000000000000005, 0.998, 192.0, 0.0, 0.0, 0.0, 0.0, 0.0, 0.0, 0.0, 0.0, 0.0, 1.7151621826836057E9, 0.0, 2024-05-08 12:56:22.683
163.0, 188.9392958807106, 0.0, 0.0, 0.0, 0.0, 0.0, 0.0, 0.0, 0.002, -0.052000000000000005, 0.998, 192.0, 0.0, 0.0, 0.0, 0.0, 0.0, 0.0, 0.0, 0.0, 0.0, 1.7151621826836212E9, 0.0, 2024-05-08 12:56:22.683
164.0, 308.09644557195253, 0.0, 0.0, 0.0, 0.0, 0.0, 0.0, 0.0, 0.002, -0.052000000000000005, 0.998, 192.0, 0.0, 0.0, 0.0, 0.0, 0.0, 0.0, 0.0, 0.0, 0.0, 1.7151621826836352E9, 0.0, 2024-05-08 12:56:22.683
165.0, 485.7928139916437, 0.0, 0.0, 0.0, 0.0, 0.0, 0.0, 0.0, 0.002, -0.052000000000000005, 0.998, 192.0, 0.0, 0.0, 0.0, 0.0, 0.0, 0.0, 0.0, 0.0, 0.0, 1.715162182683649E9, 0.0, 2024-05-08 12:56:22.683
166.0, 484.7869854911549, 0.0, 0.0, 0.0, 0.0, 0.0, 0.0, 0.0, 0.002, -0.052000000000000005, 0.998, 192.0, 0.0, 0.0, 0.0, 0.0, 0.0, 0.0, 0.0, 0.0, 0.0, 1.715162182683663E9, 0.0, 2024-05-08 12:56:22.683
167.0, 316.52305323160334, 0.0, 0.0, 0.0, 0.0, 0.0, 0.0, 0.0, 0.002, -0.052000000000000005, 0.998, 192.0, 0.0, 0.0, 0.0, 0.0, 0.0, 0.0, 0.0, 0.0, 0.0, 1.7151621826836767E9, 0.0, 2024-05-08 12:56:22.683
168.0, 259.70491882621275, 0.0, 0.0, 0.0, 0.0, 0.0, 0.0, 0.0, 0.002, -0.052000000000000005, 0.998, 192.0, 0.0, 0.0, 0.0, 0.0, 0.0, 0.0, 0.0, 0.0, 0.0, 1.7151621826836908E9, 0.0, 2024-05-08 12:56:22.683
169.0, 385.6793505763234, 0.0, 0.0, 0.0, 0.0, 0.0, 0.0, 0.0, 0.002, -0.052000000000000005, 0.998, 192.0, 0.0, 0.0, 0.0, 0.0, 0.0, 0.0, 0.0, 0.0, 0.0, 1.7151621826837046E9, 0.0, 2024-05-08 12:56:22.683
170.0, 544.555550164646, 0.0, 0.0, 0.0, 0.0, 0.0, 0.0, 0.0, 0.002, -0.052000000000000005, 0.998, 192.0, 0.0, 0.0, 0.0, 0.0, 0.0, 0.0, 0.0, 0.0, 0.0, 1.7151621826837204E9, 0.0, 2024-05-08 12:56:22.683
171.0, 545.1813990093946, 0.0, 0.0, 0.0, 0.0, 0.0, 0.0, 0.0, -0.004, -0.048, 0.99, 192.0, 255.0, 224.0, 254.0, 128.0, 30.0, 240.0, 0.0, 0.0, 0.0, 1.7151621826837344E9, 0.0, 2024-05-08 12:56:22.683
172.0, 384.87468777593233, 0.0, 0.0, 0.0, 0.0, 0.0, 0.0, 0.0, -0.004, -0.048, 0.99, 192.0, 0.0, 0.0, 0.0, 0.0, 0.0, 0.0, 0.0, 0.0, 0.0, 1.715162182683781E9, 0.0, 2024-05-08 12:56:22.683
173.0, 304.83309088147774, 0.0, 0.0, 0.0, 0.0, 0.0, 0.0, 0.0, -0.004, -0.048, 0.99, 192.0, 0.0, 0.0, 0.0, 0.0, 0.0, 0.0, 0.0, 0.0, 0.0, 1.7151621826837947E9, 0.0, 2024-05-08 12:56:22.683
174.0, 433.6461941774123, 0.0, 0.0, 0.0, 0.0, 0.0, 0.0, 0.0, -0.004, -0.048, 0.99, 192.0, 0.0, 0.0, 0.0, 0.0, 0.0, 0.0, 0.0, 0.0, 0.0, 1.7151621826838107E9, 0.0, 2024-05-08 12:56:22.683
175.0, 608.325077095637, 0.0, 0.0, 0.0, 0.0, 0.0, 0.0, 0.0, -0.004, -0.048, 0.99, 192.0, 0.0, 0.0, 0.0, 0.0, 0.0, 0.0, 0.0, 0.0, 0.0, 1.7151621826838245E9, 0.0, 2024-05-08 12:56:22.683
176.0, 614.2035858873828, 0.0, 0.0, 0.0, 0.0, 0.0, 0.0, 0.0, -0.004, -0.048, 0.99, 192.0, 0.0, 0.0, 0.0, 0.0, 0.0, 0.0, 0.0, 0.0, 0.0, 1.7151621826838403E9, 0.0, 2024-05-08 12:56:22.683
177.0, 433.5120837106805, 0.0, 0.0, 0.0, 0.0, 0.0, 0.0, 0.0, -0.004, -0.048, 0.99, 192.0, 0.0, 0.0, 0.0, 0.0, 0.0, 0.0, 0.0, 0.0, 0.0, 1.715162182683854E9, 0.0, 2024-05-08 12:56:22.683
178.0, 356.1973996397733, 0.0, 0.0, 0.0, 0.0, 0.0, 0.0, 0.0, -0.004, -0.048, 0.99, 192.0, 0.0, 0.0, 0.0, 0.0, 0.0, 0.0, 0.0, 0.0, 0.0, 1.715162182683873E9, 0.0, 2024-05-08 12:56:22.683
179.0, 489.8384797380543, 0.0, 0.0, 0.0, 0.0, 0.0, 0.0, 0.0, -0.004, -0.048, 0.99, 192.0, 0.0, 0.0, 0.0, 0.0, 0.0, 0.0, 0.0, 0.0, 0.0, 1.715162182683892E9, 0.0, 2024-05-08 12:56:22.683
180.0, 641.7632868007764, 0.0, 0.0, 0.0, 0.0, 0.0, 0.0, 0.0, -0.004, -0.048, 0.99, 192.0, 0.0, 0.0, 0.0, 0.0, 0.0, 0.0, 0.0, 0.0, 0.0, 1.7151621826839178E9, 0.0, 2024-05-08 12:56:22.683
181.0, 638.7234495548546, 0.0, 0.0, 0.0, 0.0, 0.0, 0.0, 0.0, -0.006, -0.048, 0.996, 192.0, 255.0, 208.0, 254.0, 128.0, 31.0, 32.0, 0.0, 0.0, 0.0, 1.7151621826839325E9, 0.0, 2024-05-08 12:56:22.683
182.0, 487.6703605258895, 0.0, 0.0, 0.0, 0.0, 0.0, 0.0, 0.0, -0.006, -0.048, 0.996, 192.0, 0.0, 0.0, 0.0, 0.0, 0.0, 0.0, 0.0, 0.0, 0.0, 1.715162182683947E9, 0.0, 2024-05-08 12:56:22.683
183.0, 396.94462978179814, 0.0, 0.0, 0.0, 0.0, 0.0, 0.0, 0.0, -0.006, -0.048, 0.996, 192.0, 0.0, 0.0, 0.0, 0.0, 0.0, 0.0, 0.0, 0.0, 0.0, 1.7151621826839628E9, 0.0, 2024-05-08 12:56:22.683
184.0, 500.0308752096743, 0.0, 0.0, 0.0, 0.0, 0.0, 0.0, 0.0, -0.006, -0.048, 0.996, 192.0, 0.0, 0.0, 0.0, 0.0, 0.0, 0.0, 0.0, 0.0, 0.0, 1.7151621826839764E9, 0.0, 2024-05-08 12:56:22.683
185.0, 650.7933915607205, 0.0, 0.0, 0.0, 0.0, 0.0, 0.0, 0.0, -0.006, -0.048, 0.996, 192.0, 0.0, 0.0, 0.0, 0.0, 0.0, 0.0, 0.0, 0.0, 0.0, 1.71516218268399E9, 0.0, 2024-05-08 12:56:22.683
186.0, 637.5611588431786, 0.0, 0.0, 0.0, 0.0, 0.0, 0.0, 0.0, -0.006, -0.048, 0.996, 192.0, 0.0, 0.0, 0.0, 0.0, 0.0, 0.0, 0.0, 0.0, 0.0, 1.7151621826840036E9, 0.0, 2024-05-08 12:56:22.684
187.0, 453.9192263983758, 0.0, 0.0, 0.0, 0.0, 0.0, 0.0, 0.0, -0.006, -0.048, 0.996, 192.0, 0.0, 0.0, 0.0, 0.0, 0.0, 0.0, 0.0, 0.0, 0.0, 1.7151621826840172E9, 0.0, 2024-05-08 12:56:22.684
188.0, 335.38792555188246, 0.0, 0.0, 0.0, 0.0, 0.0, 0.0, 0.0, -0.006, -0.048, 0.996, 192.0, 0.0, 0.0, 0.0, 0.0, 0.0, 0.0, 0.0, 0.0, 0.0, 1.7151621826840308E9, 0.0, 2024-05-08 12:56:22.684
189.0, 446.40904026139265, 0.0, 0.0, 0.0, 0.0, 0.0, 0.0, 0.0, -0.006, -0.048, 0.996, 192.0, 0.0, 0.0, 0.0, 0.0, 0.0, 0.0, 0.0, 0.0, 0.0, 1.715162182684104E9, 0.0, 2024-05-08 12:56:22.684
190.0, 603.519452037746, 0.0, 0.0, 0.0, 0.0, 0.0, 0.0, 0.0, -0.006, -0.048, 0.996, 192.0, 0.0, 0.0, 0.0, 0.0, 0.0, 0.0, 0.0, 0.0, 0.0, 1.7151621826841185E9, 0.0, 2024-05-08 12:56:22.684
191.0, 622.7196005248547, 0.0, 0.0, 0.0, 0.0, 0.0, 0.0, 0.0, 0.002, -0.046, 0.996, 192.0, 0.0, 16.0, 254.0, 144.0, 31.0, 32.0, 0.0, 0.0, 0.0, 1.715162182684132E9, 0.0, 2024-05-08 12:56:22.684
192.0, 450.54411298562445, 0.0, 0.0, 0.0, 0.0, 0.0, 0.0, 0.0, 0.002, -0.046, 0.996, 192.0, 0.0, 0.0, 0.0, 0.0, 0.0, 0.0, 0.0, 0.0, 0.0, 1.715162182684147E9, 0.0, 2024-05-08 12:56:22.684
193.0, 346.4967425461701, 0.0, 0.0, 0.0, 0.0, 0.0, 0.0, 0.0, 0.002, -0.046, 0.996, 192.0, 0.0, 0.0, 0.0, 0.0, 0.0, 0.0, 0.0, 0.0, 0.0, 1.7151621826841605E9, 0.0, 2024-05-08 12:56:22.684
194.0, 458.5460375006244, 0.0, 0.0, 0.0, 0.0, 0.0, 0.0, 0.0, 0.002, -0.046, 0.996, 192.0, 0.0, 0.0, 0.0, 0.0, 0.0, 0.0, 0.0, 0.0, 0.0, 1.7151621826841743E9, 0.0, 2024-05-08 12:56:22.684
195.0, 597.6856467349108, 0.0, 0.0, 0.0, 0.0, 0.0, 0.0, 0.0, 0.002, -0.046, 0.996, 192.0, 0.0, 0.0, 0.0, 0.0, 0.0, 0.0, 0.0, 0.0, 0.0, 1.715162182684188E9, 0.0, 2024-05-08 12:56:22.684
196.0, 591.4048065429696, 0.0, 0.0, 0.0, 0.0, 0.0, 0.0, 0.0, 0.002, -0.046, 0.996, 192.0, 0.0, 0.0, 0.0, 0.0, 0.0, 0.0, 0.0, 0.0, 0.0, 1.7151621826842036E9, 0.0, 2024-05-08 12:56:22.684
197.0, 443.4809617377474, 0.0, 0.0, 0.0, 0.0, 0.0, 0.0, 0.0, 0.002, -0.046, 0.996, 192.0, 0.0, 0.0, 0.0, 0.0, 0.0, 0.0, 0.0, 0.0, 0.0, 1.7151621826842175E9, 0.0, 2024-05-08 12:56:22.684
198.0, 346.2955768460723, 0.0, 0.0, 0.0, 0.0, 0.0, 0.0, 0.0, 0.002, -0.046, 0.996, 192.0, 0.0, 0.0, 0.0, 0.0, 0.0, 0.0, 0.0, 0.0, 0.0, 1.7151621826842313E9, 0.0, 2024-05-08 12:56:22.684
199.0, 423.5432056836135, 0.0, 0.0, 0.0, 0.0, 0.0, 0.0, 0.0, 0.002, -0.046, 0.996, 192.0, 0.0, 0.0, 0.0, 0.0, 0.0, 0.0, 0.0, 0.0, 0.0, 1.7151621826842449E9, 0.0, 2024-05-08 12:56:22.684
200.0, 579.5583819816568, 0.0, 0.0, 0.0, 0.0, 0.0, 0.0, 0.0, 0.002, -0.046, 0.996, 192.0, 0.0, 0.0, 0.0, 0.0, 0.0, 0.0, 0.0, 0.0, 0.0, 1.7151621826842585E9, 0.0, 2024-05-08 12:56:22.684
201.0, 594.0646641331512, 0.0, 0.0, 0.0, 0.0, 0.0, 0.0, 0.0, 0.002, -0.046, 0.996, 192.0, 0.0, 0.0, 254.0, 112.0, 31.0, 0.0, 0.0, 0.0, 0.0, 1.7151621826842723E9, 0.0, 2024-05-08 12:56:22.684
202.0, 408.05344677608576, 0.0, 0.0, 0.0, 0.0, 0.0, 0.0, 0.0, 0.002, -0.046, 0.996, 192.0, 0.0, 0.0, 0.0, 0.0, 0.0, 0.0, 0.0, 0.0, 0.0, 1.7151621826842864E9, 0.0, 2024-05-08 12:56:22.684
203.0, 295.73593088816773, 0.0, 0.0, 0.0, 0.0, 0.0, 0.0, 0.0, 0.002, -0.046, 0.996, 192.0, 0.0, 0.0, 0.0, 0.0, 0.0, 0.0, 0.0, 0.0, 0.0, 1.715162182684302E9, 0.0, 2024-05-08 12:56:22.684
204.0, 407.6064118869796, 0.0, 0.0, 0.0, 0.0, 0.0, 0.0, 0.0, 0.002, -0.046, 0.996, 192.0, 0.0, 0.0, 0.0, 0.0, 0.0, 0.0, 0.0, 0.0, 0.0, 1.7151621826843157E9, 0.0, 2024-05-08 12:56:22.684
205.0, 577.9714081253301, 0.0, 0.0, 0.0, 0.0, 0.0, 0.0, 0.0, 0.002, -0.046, 0.996, 192.0, 0.0, 0.0, 0.0, 0.0, 0.0, 0.0, 0.0, 0.0, 0.0, 1.7151621826843293E9, 0.0, 2024-05-08 12:56:22.684
206.0, 576.0268063577183, 0.0, 0.0, 0.0, 0.0, 0.0, 0.0, 0.0, 0.002, -0.046, 0.996, 192.0, 0.0, 0.0, 0.0, 0.0, 0.0, 0.0, 0.0, 0.0, 0.0, 1.7151621826843436E9, 0.0, 2024-05-08 12:56:22.684
207.0, 402.37610368443774, 0.0, 0.0, 0.0, 0.0, 0.0, 0.0, 0.0, 0.002, -0.046, 0.996, 192.0, 0.0, 0.0, 0.0, 0.0, 0.0, 0.0, 0.0, 0.0, 0.0, 1.7151621826843665E9, 0.0, 2024-05-08 12:56:22.684
208.0, 320.61342246692453, 0.0, 0.0, 0.0, 0.0, 0.0, 0.0, 0.0, 0.002, -0.046, 0.996, 192.0, 0.0, 0.0, 0.0, 0.0, 0.0, 0.0, 0.0, 0.0, 0.0, 1.7151621826843803E9, 0.0, 2024-05-08 12:56:22.684
209.0, 447.43722050633676, 0.0, 0.0, 0.0, 0.0, 0.0, 0.0, 0.0, 0.002, -0.046, 0.996, 192.0, 0.0, 0.0, 0.0, 0.0, 0.0, 0.0, 0.0, 0.0, 0.0, 1.715162182684396E9, 0.0, 2024-05-08 12:56:22.684
210.0, 607.5427660397013, 0.0, 0.0, 0.0, 0.0, 0.0, 0.0, 0.0, 0.002, -0.046, 0.996, 192.0, 0.0, 0.0, 0.0, 0.0, 0.0, 0.0, 0.0, 0.0, 0.0, 1.7151621826844099E9, 0.0, 2024-05-08 12:56:22.684
211.0, 622.4066761024804, 0.0, 0.0, 0.0, 0.0, 0.0, 0.0, 0.0, -0.002, -0.044, 0.994, 192.0, 255.0, 240.0, 254.0, 160.0, 31.0, 16.0, 0.0, 0.0, 0.0, 1.7151621826844237E9, 0.0, 2024-05-08 12:56:22.684
212.0, 432.12627555445147, 0.0, 0.0, 0.0, 0.0, 0.0, 0.0, 0.0, -0.002, -0.044, 0.994, 192.0, 0.0, 0.0, 0.0, 0.0, 0.0, 0.0, 0.0, 0.0, 0.0, 1.7151621826844385E9, 0.0, 2024-05-08 12:56:22.684
213.0, 304.2072420367291, 0.0, 0.0, 0.0, 0.0, 0.0, 0.0, 0.0, -0.002, -0.044, 0.994, 192.0, 0.0, 0.0, 0.0, 0.0, 0.0, 0.0, 0.0, 0.0, 0.0, 1.715162182684452E9, 0.0, 2024-05-08 12:56:22.684
214.0, 391.5802111125244, 0.0, 0.0, 0.0, 0.0, 0.0, 0.0, 0.0, -0.002, -0.044, 0.994, 192.0, 0.0, 0.0, 0.0, 0.0, 0.0, 0.0, 0.0, 0.0, 0.0, 1.715162182684466E9, 0.0, 2024-05-08 12:56:22.684
215.0, 545.069640287118, 0.0, 0.0, 0.0, 0.0, 0.0, 0.0, 0.0, -0.002, -0.044, 0.994, 192.0, 0.0, 0.0, 0.0, 0.0, 0.0, 0.0, 0.0, 0.0, 0.0, 1.7151621826844797E9, 0.0, 2024-05-08 12:56:22.684
216.0, 574.0822045901066, 0.0, 0.0, 0.0, 0.0, 0.0, 0.0, 0.0, -0.002, -0.044, 0.994, 192.0, 0.0, 0.0, 0.0, 0.0, 0.0, 0.0, 0.0, 0.0, 0.0, 1.7151621826844952E9, 0.0, 2024-05-08 12:56:22.684
217.0, 402.2643449621612, 0.0, 0.0, 0.0, 0.0, 0.0, 0.0, 0.0, -0.002, -0.044, 0.994, 192.0, 0.0, 0.0, 0.0, 0.0, 0.0, 0.0, 0.0, 0.0, 0.0, 1.7151621826845093E9, 0.0, 2024-05-08 12:56:22.684
218.0, 311.56096596252513, 0.0, 0.0, 0.0, 0.0, 0.0, 0.0, 0.0, -0.002, -0.044, 0.994, 192.0, 0.0, 0.0, 0.0, 0.0, 0.0, 0.0, 0.0, 0.0, 0.0, 1.7151621826845229E9, 0.0, 2024-05-08 12:56:22.684
219.0, 423.8561301059878, 0.0, 0.0, 0.0, 0.0, 0.0, 0.0, 0.0, -0.002, -0.044, 0.994, 192.0, 0.0, 0.0, 0.0, 0.0, 0.0, 0.0, 0.0, 0.0, 0.0, 1.7151621826845367E9, 0.0, 2024-05-08 12:56:22.684
220.0, 610.7837689857208, 0.0, 0.0, 0.0, 0.0, 0.0, 0.0, 0.0, -0.002, -0.044, 0.994, 192.0, 0.0, 0.0, 0.0, 0.0, 0.0, 0.0, 0.0, 0.0, 0.0, 1.7151621826845503E9, 0.0, 2024-05-08 12:56:22.684
221.0, 652.0674409946729, 0.0, 0.0, 0.0, 0.0, 0.0, 0.0, 0.0, 0.004, -0.046, 0.99, 192.0, 0.0, 32.0, 254.0, 144.0, 30.0, 240.0, 0.0, 0.0, 0.0, 1.7151621826845644E9, 0.0, 2024-05-08 12:56:22.684
222.0, 523.6119656100233, 0.0, 0.0, 0.0, 0.0, 0.0, 0.0, 0.0, 0.004, -0.046, 0.99, 192.0, 0.0, 0.0, 0.0, 0.0, 0.0, 0.0, 0.0, 0.0, 0.0, 1.7151621826845806E9, 0.0, 2024-05-08 12:56:22.684
223.0, 406.53352815312485, 0.0, 0.0, 0.0, 0.0, 0.0, 0.0, 0.0, 0.004, -0.046, 0.99, 192.0, 0.0, 0.0, 0.0, 0.0, 0.0, 0.0, 0.0, 0.0, 0.0, 1.7151621826845944E9, 0.0, 2024-05-08 12:56:22.684
224.0, 503.7636165337106, 0.0, 0.0, 0.0, 0.0, 0.0, 0.0, 0.0, 0.004, -0.046, 0.99, 192.0, 0.0, 0.0, 0.0, 0.0, 0.0, 0.0, 0.0, 0.0, 0.0, 1.7151621826846156E9, 0.0, 2024-05-08 12:56:22.684
225.0, 672.2063627489046, 0.0, 0.0, 0.0, 0.0, 0.0, 0.0, 0.0, 0.004, -0.046, 0.99, 192.0, 0.0, 0.0, 0.0, 0.0, 0.0, 0.0, 0.0, 0.0, 0.0, 1.715162183162679E9, 0.0, 2024-05-08 12:56:23.162
226.0, 721.514311017312, 0.0, 0.0, 0.0, 0.0, 0.0, 0.0, 0.0, 0.004, -0.046, 0.99, 192.0, 0.0, 0.0, 0.0, 0.0, 0.0, 0.0, 0.0, 0.0, 0.0, 1.715162183162738E9, 0.0, 2024-05-08 12:56:23.162
227.0, 553.0492130576627, 0.0, 0.0, 0.0, 0.0, 0.0, 0.0, 0.0, 0.004, -0.046, 0.99, 192.0, 0.0, 0.0, 0.0, 0.0, 0.0, 0.0, 0.0, 0.0, 0.0, 1.7151621831627698E9, 0.0, 2024-05-08 12:56:23.162
228.0, 434.65202267790113, 0.0, 0.0, 0.0, 0.0, 0.0, 0.0, 0.0, 0.004, -0.046, 0.99, 192.0, 0.0, 0.0, 0.0, 0.0, 0.0, 0.0, 0.0, 0.0, 0.0, 1.7151621831627984E9, 0.0, 2024-05-08 12:56:23.162
229.0, 540.554587907146, 0.0, 0.0, 0.0, 0.0, 0.0, 0.0, 0.0, 0.004, -0.046, 0.99, 192.0, 0.0, 0.0, 0.0, 0.0, 0.0, 0.0, 0.0, 0.0, 0.0, 1.7151621831628273E9, 0.0, 2024-05-08 12:56:23.162
230.0, 691.7864908917536, 0.0, 0.0, 0.0, 0.0, 0.0, 0.0, 0.0, 0.004, -0.046, 0.99, 192.0, 0.0, 0.0, 0.0, 0.0, 0.0, 0.0, 0.0, 0.0, 0.0, 1.715162183162856E9, 0.0, 2024-05-08 12:56:23.162
231.0, 710.2937353007478, 0.0, 0.0, 0.0, 0.0, 0.0, 0.0, 0.0, 0.004, -0.05, 0.988, 192.0, 0.0, 32.0, 254.0, 112.0, 30.0, 224.0, 0.0, 0.0, 0.0, 1.7151621831628811E9, 0.0, 2024-05-08 12:56:23.162
232.0, 528.9316807903863, 0.0, 0.0, 0.0, 0.0, 0.0, 0.0, 0.0, 0.004, -0.05, 0.988, 192.0, 0.0, 0.0, 0.0, 0.0, 0.0, 0.0, 0.0, 0.0, 0.0, 1.7151621831629033E9, 0.0, 2024-05-08 12:56:23.162
233.0, 408.99222004320865, 0.0, 0.0, 0.0, 0.0, 0.0, 0.0, 0.0, 0.004, -0.05, 0.988, 192.0, 0.0, 0.0, 0.0, 0.0, 0.0, 0.0, 0.0, 0.0, 0.0, 1.715162183162932E9, 0.0, 2024-05-08 12:56:23.162
234.0, 499.6955990428447, 0.0, 0.0, 0.0, 0.0, 0.0, 0.0, 0.0, 0.004, -0.05, 0.988, 192.0, 0.0, 0.0, 0.0, 0.0, 0.0, 0.0, 0.0, 0.0, 0.0, 1.71516218316295E9, 0.0, 2024-05-08 12:56:23.162
235.0, 650.9051502829969, 0.0, 0.0, 0.0, 0.0, 0.0, 0.0, 0.0, 0.004, -0.05, 0.988, 192.0, 0.0, 0.0, 0.0, 0.0, 0.0, 0.0, 0.0, 0.0, 0.0, 1.715162183162971E9, 0.0, 2024-05-08 12:56:23.162
236.0, 674.9779790613627, 0.0, 0.0, 0.0, 0.0, 0.0, 0.0, 0.0, 0.004, -0.05, 0.988, 192.0, 0.0, 0.0, 0.0, 0.0, 0.0, 0.0, 0.0, 0.0, 0.0, 1.715162183162998E9, 0.0, 2024-05-08 12:56:23.162
237.0, 502.5342705886687, 0.0, 0.0, 0.0, 0.0, 0.0, 0.0, 0.0, 0.004, -0.05, 0.988, 192.0, 0.0, 0.0, 0.0, 0.0, 0.0, 0.0, 0.0, 0.0, 0.0, 1.7151621831630132E9, 0.0, 2024-05-08 12:56:23.163
238.0, 387.1545657103736, 0.0, 0.0, 0.0, 0.0, 0.0, 0.0, 0.0, 0.004, -0.05, 0.988, 192.0, 0.0, 0.0, 0.0, 0.0, 0.0, 0.0, 0.0, 0.0, 0.0, 1.7151621831630273E9, 0.0, 2024-05-08 12:56:23.163
239.0, 458.5683892450797, 0.0, 0.0, 0.0, 0.0, 0.0, 0.0, 0.0, 0.004, -0.05, 0.988, 192.0, 0.0, 0.0, 0.0, 0.0, 0.0, 0.0, 0.0, 0.0, 0.0, 1.7151621831630423E9, 0.0, 2024-05-08 12:56:23.163
240.0, 629.0004407167961, 0.0, 0.0, 0.0, 0.0, 0.0, 0.0, 0.0, 0.004, -0.05, 0.988, 192.0, 0.0, 0.0, 0.0, 0.0, 0.0, 0.0, 0.0, 0.0, 0.0, 1.7151621831630566E9, 0.0, 2024-05-08 12:56:23.163
241.0, 680.1412320305386, 0.0, 0.0, 0.0, 0.0, 0.0, 0.0, 0.0, 0.004, -0.052000000000000005, 0.992, 192.0, 0.0, 32.0, 254.0, 96.0, 31.0, 0.0, 0.0, 0.0, 0.0, 1.715162183163071E9, 0.0, 2024-05-08 12:56:23.163
242.0, 524.1707592214059, 0.0, 0.0, 0.0, 0.0, 0.0, 0.0, 0.0, 0.004, -0.052000000000000005, 0.992, 192.0, 0.0, 0.0, 0.0, 0.0, 0.0, 0.0, 0.0, 0.0, 0.0, 1.7151621831631799E9, 0.0, 2024-05-08 12:56:23.163
243.0, 428.4158859748705, 0.0, 0.0, 0.0, 0.0, 0.0, 0.0, 0.0, 0.004, -0.052000000000000005, 0.992, 192.0, 0.0, 0.0, 0.0, 0.0, 0.0, 0.0, 0.0, 0.0, 0.0, 1.7151621831631937E9, 0.0, 2024-05-08 12:56:23.163
244.0, 525.1095324885288, 0.0, 0.0, 0.0, 0.0, 0.0, 0.0, 0.0, 0.004, -0.052000000000000005, 0.992, 192.0, 0.0, 0.0, 0.0, 0.0, 0.0, 0.0, 0.0, 0.0, 0.0, 1.7151621831632075E9, 0.0, 2024-05-08 12:56:23.163
245.0, 725.0458866412505, 0.0, 0.0, 0.0, 0.0, 0.0, 0.0, 0.0, 0.004, -0.052000000000000005, 0.992, 192.0, 0.0, 0.0, 0.0, 0.0, 0.0, 0.0, 0.0, 0.0, 0.0, 1.7151621831632214E9, 0.0, 2024-05-08 12:56:23.163
246.0, 791.8776025626186, 0.0, 0.0, 0.0, 0.0, 0.0, 0.0, 0.0, 0.004, -0.052000000000000005, 0.992, 192.0, 0.0, 0.0, 0.0, 0.0, 0.0, 0.0, 0.0, 0.0, 0.0, 1.7151621831632364E9, 0.0, 2024-05-08 12:56:23.163
247.0, 645.2948624247149, 0.0, 0.0, 0.0, 0.0, 0.0, 0.0, 0.0, 0.004, -0.052000000000000005, 0.992, 192.0, 0.0, 0.0, 0.0, 0.0, 0.0, 0.0, 0.0, 0.0, 0.0, 1.7151621831632507E9, 0.0, 2024-05-08 12:56:23.163
248.0, 547.2601112437382, 0.0, 0.0, 0.0, 0.0, 0.0, 0.0, 0.0, 0.004, -0.052000000000000005, 0.992, 192.0, 0.0, 0.0, 0.0, 0.0, 0.0, 0.0, 0.0, 0.0, 0.0, 1.7151621831632664E9, 0.0, 2024-05-08 12:56:23.163
