%OpenBCI Raw EXG Data
%Number of channels = 8
%Sample Rate = 250 Hz
%Board = OpenBCI_GUI$BoardCytonSerial
Sample Index, EXG Channel 0, EXG Channel 1, EXG Channel 2, EXG Channel 3, EXG Channel 4, EXG Channel 5, EXG Channel 6, EXG Channel 7, Accel Channel 0, Accel Channel 1, Accel Channel 2, Other, Other, Other, Other, Other, Other, Other, Analog Channel 0, Analog Channel 1, Analog Channel 2, Timestamp, Other, Timestamp (Formatted)
17.0, 2724.8788148020285, 0.0, 0.0, 0.0, 0.0, 0.0, 0.0, 0.0, 0.096, -0.036000000000000004, 0.99, 192.0, 3.0, 0.0, 254.0, 224.0, 30.0, 240.0, 0.0, 0.0, 0.0, 1.7151633992788057E9, 0.0, 2024-05-08 13:16:39.278
18.0, 2887.375996992111, 0.0, 0.0, 0.0, 0.0, 0.0, 0.0, 0.0, 0.096, -0.036000000000000004, 0.99, 192.0, 0.0, 0.0, 0.0, 0.0, 0.0, 0.0, 0.0, 0.0, 0.0, 1.7151633992788544E9, 0.0, 2024-05-08 13:16:39.278
19.0, 2727.605727625576, 0.0, 0.0, 0.0, 0.0, 0.0, 0.0, 0.0, 0.096, -0.036000000000000004, 0.99, 192.0, 0.0, 0.0, 0.0, 0.0, 0.0, 0.0, 0.0, 0.0, 0.0, 1.7151633992788777E9, 0.0, 2024-05-08 13:16:39.278
20.0, 2473.7122623577434, 0.0, 0.0, 0.0, 0.0, 0.0, 0.0, 0.0, 0.096, -0.036000000000000004, 0.99, 192.0, 0.0, 0.0, 0.0, 0.0, 0.0, 0.0, 0.0, 0.0, 0.0, 1.715163399278896E9, 0.0, 2024-05-08 13:16:39.278
21.0, 2426.885357723875, 0.0, 0.0, 0.0, 0.0, 0.0, 0.0, 0.0, 0.096, -0.036000000000000004, 0.99, 192.0, 0.0, 0.0, 0.0, 0.0, 0.0, 0.0, 0.0, 0.0, 0.0, 1.7151633992789156E9, 0.0, 2024-05-08 13:16:39.278
22.0, 2634.0189735912054, 0.0, 0.0, 0.0, 0.0, 0.0, 0.0, 0.0, 0.096, -0.036000000000000004, 0.99, 192.0, 0.0, 0.0, 0.0, 0.0, 0.0, 0.0, 0.0, 0.0, 0.0, 1.7151633992789333E9, 0.0, 2024-05-08 13:16:39.278
23.0, 2788.871859177573, 0.0, 0.0, 0.0, 0.0, 0.0, 0.0, 0.0, 0.096, -0.036000000000000004, 0.99, 192.0, 0.0, 0.0, 0.0, 0.0, 0.0, 0.0, 0.0, 0.0, 0.0, 1.715163399278994E9, 0.0, 2024-05-08 13:16:39.278
24.0, 2631.448522978845, 0.0, 0.0, 0.0, 0.0, 0.0, 0.0, 0.0, 0.096, -0.036000000000000004, 0.99, 192.0, 0.0, 0.0, 0.0, 0.0, 0.0, 0.0, 0.0, 0.0, 0.0, 1.7151633992790124E9, 0.0, 2024-05-08 13:16:39.279
25.0, 2388.4180055162915, 0.0, 0.0, 0.0, 0.0, 0.0, 0.0, 0.0, 0.096, -0.036000000000000004, 0.99, 192.0, 0.0, 0.0, 0.0, 0.0, 0.0, 0.0, 0.0, 0.0, 0.0, 1.71516339927903E9, 0.0, 2024-05-08 13:16:39.279
26.0, 2331.7339815776327, 0.0, 0.0, 0.0, 0.0, 0.0, 0.0, 0.0, 0.096, -0.036000000000000004, 0.99, 192.0, 0.0, 0.0, 0.0, 0.0, 0.0, 0.0, 0.0, 0.0, 0.0, 1.715163399279048E9, 0.0, 2024-05-08 13:16:39.279
27.0, 2508.335114519014, 0.0, 0.0, 0.0, 0.0, 0.0, 0.0, 0.0, 0.092, -0.042, 0.99, 192.0, 2.0, 224.0, 254.0, 176.0, 30.0, 240.0, 0.0, 0.0, 0.0, 1.7151633992790658E9, 0.0, 2024-05-08 13:16:39.279
28.0, 2605.5875546440548, 0.0, 0.0, 0.0, 0.0, 0.0, 0.0, 0.0, 0.092, -0.042, 0.99, 192.0, 0.0, 0.0, 0.0, 0.0, 0.0, 0.0, 0.0, 0.0, 0.0, 1.715163399279086E9, 0.0, 2024-05-08 13:16:39.279
29.0, 2436.8765874953974, 0.0, 0.0, 0.0, 0.0, 0.0, 0.0, 0.0, 0.092, -0.042, 0.99, 192.0, 0.0, 0.0, 0.0, 0.0, 0.0, 0.0, 0.0, 0.0, 0.0, 1.7151633992791035E9, 0.0, 2024-05-08 13:16:39.279
30.0, 2199.5457648689467, 0.0, 0.0, 0.0, 0.0, 0.0, 0.0, 0.0, 0.092, -0.042, 0.99, 192.0, 0.0, 0.0, 0.0, 0.0, 0.0, 0.0, 0.0, 0.0, 0.0, 1.715163399279121E9, 0.0, 2024-05-08 13:16:39.279
31.0, 2139.37486879526, 0.0, 0.0, 0.0, 0.0, 0.0, 0.0, 0.0, 0.092, -0.042, 0.99, 192.0, 0.0, 0.0, 0.0, 0.0, 0.0, 0.0, 0.0, 0.0, 0.0, 1.7151633992791383E9, 0.0, 2024-05-08 13:16:39.279
32.0, 2366.5579994390014, 0.0, 0.0, 0.0, 0.0, 0.0, 0.0, 0.0, 0.092, -0.042, 0.99, 192.0, 0.0, 0.0, 0.0, 0.0, 0.0, 0.0, 0.0, 0.0, 0.0, 1.7151633992791557E9, 0.0, 2024-05-08 13:16:39.279
33.0, 2517.208757067771, 0.0, 0.0, 0.0, 0.0, 0.0, 0.0, 0.0, 0.092, -0.042, 0.99, 192.0, 0.0, 0.0, 0.0, 0.0, 0.0, 0.0, 0.0, 0.0, 0.0, 1.7151633992791736E9, 0.0, 2024-05-08 13:16:39.279
34.0, 2401.583183000467, 0.0, 0.0, 0.0, 0.0, 0.0, 0.0, 0.0, 0.092, -0.042, 0.99, 192.0, 0.0, 0.0, 0.0, 0.0, 0.0, 0.0, 0.0, 0.0, 0.0, 1.7151633992791927E9, 0.0, 2024-05-08 13:16:39.279
35.0, 2151.6236247567685, 0.0, 0.0, 0.0, 0.0, 0.0, 0.0, 0.0, 0.092, -0.042, 0.99, 192.0, 0.0, 0.0, 0.0, 0.0, 0.0, 0.0, 0.0, 0.0, 0.0, 1.7151633992792141E9, 0.0, 2024-05-08 13:16:39.279
36.0, 2106.294287001406, 0.0, 0.0, 0.0, 0.0, 0.0, 0.0, 0.0, 0.092, -0.042, 0.99, 192.0, 0.0, 0.0, 0.0, 0.0, 0.0, 0.0, 0.0, 0.0, 0.0, 1.7151633992792318E9, 0.0, 2024-05-08 13:16:39.279
37.0, 2300.352132362382, 0.0, 0.0, 0.0, 0.0, 0.0, 0.0, 0.0, 0.092, -0.042, 0.992, 192.0, 2.0, 224.0, 254.0, 176.0, 31.0, 0.0, 0.0, 0.0, 0.0, 1.7151633992792492E9, 0.0, 2024-05-08 13:16:39.279
38.0, 2457.753116816654, 0.0, 0.0, 0.0, 0.0, 0.0, 0.0, 0.0, 0.092, -0.042, 0.992, 192.0, 0.0, 0.0, 0.0, 0.0, 0.0, 0.0, 0.0, 0.0, 0.0, 1.7151633992792673E9, 0.0, 2024-05-08 13:16:39.279
39.0, 2293.601905536879, 0.0, 0.0, 0.0, 0.0, 0.0, 0.0, 0.0, 0.092, -0.042, 0.992, 192.0, 0.0, 0.0, 0.0, 0.0, 0.0, 0.0, 0.0, 0.0, 0.0, 1.71516339927929E9, 0.0, 2024-05-08 13:16:39.279
40.0, 2053.387707875694, 0.0, 0.0, 0.0, 0.0, 0.0, 0.0, 0.0, 0.092, -0.042, 0.992, 192.0, 0.0, 0.0, 0.0, 0.0, 0.0, 0.0, 0.0, 0.0, 0.0, 1.71516339927932E9, 0.0, 2024-05-08 13:16:39.279
41.0, 2006.7843206863788, 0.0, 0.0, 0.0, 0.0, 0.0, 0.0, 0.0, 0.092, -0.042, 0.992, 192.0, 0.0, 0.0, 0.0, 0.0, 0.0, 0.0, 0.0, 0.0, 0.0, 1.715163399279344E9, 0.0, 2024-05-08 13:16:39.279
42.0, 2197.712921823612, 0.0, 0.0, 0.0, 0.0, 0.0, 0.0, 0.0, 0.092, -0.042, 0.992, 192.0, 0.0, 0.0, 0.0, 0.0, 0.0, 0.0, 0.0, 0.0, 0.0, 1.7151633992793646E9, 0.0, 2024-05-08 13:16:39.279
43.0, 2392.240153818149, 0.0, 0.0, 0.0, 0.0, 0.0, 0.0, 0.0, 0.092, -0.042, 0.992, 192.0, 0.0, 0.0, 0.0, 0.0, 0.0, 0.0, 0.0, 0.0, 0.0, 1.7151633992793827E9, 0.0, 2024-05-08 13:16:39.279
44.0, 2250.798314904966, 0.0, 0.0, 0.0, 0.0, 0.0, 0.0, 0.0, 0.092, -0.042, 0.992, 192.0, 0.0, 0.0, 0.0, 0.0, 0.0, 0.0, 0.0, 0.0, 0.0, 1.7151633992794006E9, 0.0, 2024-05-08 13:16:39.279
45.0, 2010.7852829438787, 0.0, 0.0, 0.0, 0.0, 0.0, 0.0, 0.0, 0.092, -0.042, 0.992, 192.0, 0.0, 0.0, 0.0, 0.0, 0.0, 0.0, 0.0, 0.0, 0.0, 1.715163399279418E9, 0.0, 2024-05-08 13:16:39.279
46.0, 1938.4103343975944, 0.0, 0.0, 0.0, 0.0, 0.0, 0.0, 0.0, 0.092, -0.042, 0.992, 192.0, 0.0, 0.0, 0.0, 0.0, 0.0, 0.0, 0.0, 0.0, 0.0, 1.715163399279438E9, 0.0, 2024-05-08 13:16:39.279
47.0, 2123.929813376643, 0.0, 0.0, 0.0, 0.0, 0.0, 0.0, 0.0, 0.096, -0.04, 0.99, 192.0, 3.0, 0.0, 254.0, 192.0, 30.0, 240.0, 0.0, 0.0, 0.0, 1.7151633992794554E9, 0.0, 2024-05-08 13:16:39.279
48.0, 2297.446405583192, 0.0, 0.0, 0.0, 0.0, 0.0, 0.0, 0.0, 0.096, -0.04, 0.99, 192.0, 0.0, 0.0, 0.0, 0.0, 0.0, 0.0, 0.0, 0.0, 0.0, 1.7151633992794735E9, 0.0, 2024-05-08 13:16:39.279
49.0, 2164.9452644521316, 0.0, 0.0, 0.0, 0.0, 0.0, 0.0, 0.0, 0.096, -0.04, 0.99, 192.0, 0.0, 0.0, 0.0, 0.0, 0.0, 0.0, 0.0, 0.0, 0.0, 1.7151633992794914E9, 0.0, 2024-05-08 13:16:39.279
50.0, 1957.9234073070775, 0.0, 0.0, 0.0, 0.0, 0.0, 0.0, 0.0, 0.096, -0.04, 0.99, 192.0, 0.0, 0.0, 0.0, 0.0, 0.0, 0.0, 0.0, 0.0, 0.0, 1.7151633992795093E9, 0.0, 2024-05-08 13:16:39.279
51.0, 1956.2693782173847, 0.0, 0.0, 0.0, 0.0, 0.0, 0.0, 0.0, 0.096, -0.04, 0.99, 192.0, 0.0, 0.0, 0.0, 0.0, 0.0, 0.0, 0.0, 0.0, 0.0, 1.715163399279528E9, 0.0, 2024-05-08 13:16:39.279
52.0, 2170.66731103269, 0.0, 0.0, 0.0, 0.0, 0.0, 0.0, 0.0, 0.096, -0.04, 0.99, 192.0, 0.0, 0.0, 0.0, 0.0, 0.0, 0.0, 0.0, 0.0, 0.0, 1.7151633992795453E9, 0.0, 2024-05-08 13:16:39.279
53.0, 2361.0594703029956, 0.0, 0.0, 0.0, 0.0, 0.0, 0.0, 0.0, 0.096, -0.04, 0.99, 192.0, 0.0, 0.0, 0.0, 0.0, 0.0, 0.0, 0.0, 0.0, 0.0, 1.7151633992795644E9, 0.0, 2024-05-08 13:16:39.279
54.0, 2254.1287248288068, 0.0, 0.0, 0.0, 0.0, 0.0, 0.0, 0.0, 0.096, -0.04, 0.99, 192.0, 0.0, 0.0, 0.0, 0.0, 0.0, 0.0, 0.0, 0.0, 0.0, 1.7151633992795827E9, 0.0, 2024-05-08 13:16:39.279
55.0, 2085.1048332577748, 0.0, 0.0, 0.0, 0.0, 0.0, 0.0, 0.0, 0.096, -0.04, 0.99, 192.0, 0.0, 0.0, 0.0, 0.0, 0.0, 0.0, 0.0, 0.0, 0.0, 1.7151633992796001E9, 0.0, 2024-05-08 13:16:39.279
56.0, 2092.3020949723837, 0.0, 0.0, 0.0, 0.0, 0.0, 0.0, 0.0, 0.096, -0.04, 0.99, 192.0, 0.0, 0.0, 0.0, 0.0, 0.0, 0.0, 0.0, 0.0, 0.0, 1.7151633992796187E9, 0.0, 2024-05-08 13:16:39.279
57.0, 2317.6523825707895, 0.0, 0.0, 0.0, 0.0, 0.0, 0.0, 0.0, 0.096, -0.044, 0.994, 192.0, 3.0, 0.0, 254.0, 160.0, 31.0, 16.0, 0.0, 0.0, 0.0, 1.7151633992796361E9, 0.0, 2024-05-08 13:16:39.279
58.0, 2528.272870573148, 0.0, 0.0, 0.0, 0.0, 0.0, 0.0, 0.0, 0.096, -0.044, 0.994, 192.0, 0.0, 0.0, 0.0, 0.0, 0.0, 0.0, 0.0, 0.0, 0.0, 1.715163399279666E9, 0.0, 2024-05-08 13:16:39.279
59.0, 2394.408273030314, 0.0, 0.0, 0.0, 0.0, 0.0, 0.0, 0.0, 0.096, -0.044, 0.994, 192.0, 0.0, 0.0, 0.0, 0.0, 0.0, 0.0, 0.0, 0.0, 0.0, 1.7151633992796872E9, 0.0, 2024-05-08 13:16:39.279
60.0, 2177.149316924729, 0.0, 0.0, 0.0, 0.0, 0.0, 0.0, 0.0, 0.096, -0.044, 0.994, 192.0, 0.0, 0.0, 0.0, 0.0, 0.0, 0.0, 0.0, 0.0, 0.0, 1.7151633992797067E9, 0.0, 2024-05-08 13:16:39.279
61.0, 2144.2251973420616, 0.0, 0.0, 0.0, 0.0, 0.0, 0.0, 0.0, 0.096, -0.044, 0.994, 192.0, 0.0, 0.0, 0.0, 0.0, 0.0, 0.0, 0.0, 0.0, 0.0, 1.7151633992797244E9, 0.0, 2024-05-08 13:16:39.279
62.0, 2336.785475824532, 0.0, 0.0, 0.0, 0.0, 0.0, 0.0, 0.0, 0.096, -0.044, 0.994, 192.0, 0.0, 0.0, 0.0, 0.0, 0.0, 0.0, 0.0, 0.0, 0.0, 1.715163399279742E9, 0.0, 2024-05-08 13:16:39.279
63.0, 2509.8773848864303, 0.0, 0.0, 0.0, 0.0, 0.0, 0.0, 0.0, 0.096, -0.044, 0.994, 192.0, 0.0, 0.0, 0.0, 0.0, 0.0, 0.0, 0.0, 0.0, 0.0, 1.7151633992797592E9, 0.0, 2024-05-08 13:16:39.279
64.0, 2396.174060842283, 0.0, 0.0, 0.0, 0.0, 0.0, 0.0, 0.0, 0.096, -0.044, 0.994, 192.0, 0.0, 0.0, 0.0, 0.0, 0.0, 0.0, 0.0, 0.0, 0.0, 1.7151633992797763E9, 0.0, 2024-05-08 13:16:39.279
65.0, 2192.7061310656227, 0.0, 0.0, 0.0, 0.0, 0.0, 0.0, 0.0, 0.096, -0.044, 0.994, 192.0, 0.0, 0.0, 0.0, 0.0, 0.0, 0.0, 0.0, 0.0, 0.0, 1.7151633992797935E9, 0.0, 2024-05-08 13:16:39.279
66.0, 2174.958845968109, 0.0, 0.0, 0.0, 0.0, 0.0, 0.0, 0.0, 0.096, -0.044, 0.994, 192.0, 0.0, 0.0, 0.0, 0.0, 0.0, 0.0, 0.0, 0.0, 0.0, 1.715163399279811E9, 0.0, 2024-05-08 13:16:39.279
67.0, 2387.658046204811, 0.0, 0.0, 0.0, 0.0, 0.0, 0.0, 0.0, 0.1, -0.042, 0.99, 192.0, 3.0, 32.0, 254.0, 176.0, 30.0, 240.0, 0.0, 0.0, 0.0, 1.715163399279828E9, 0.0, 2024-05-08 13:16:39.279
68.0, 2580.1959729428263, 0.0, 0.0, 0.0, 0.0, 0.0, 0.0, 0.0, 0.1, -0.042, 0.99, 192.0, 0.0, 0.0, 0.0, 0.0, 0.0, 0.0, 0.0, 0.0, 0.0, 1.715163399279846E9, 0.0, 2024-05-08 13:16:39.279
69.0, 2491.7277683887205, 0.0, 0.0, 0.0, 0.0, 0.0, 0.0, 0.0, 0.1, -0.042, 0.99, 192.0, 0.0, 0.0, 0.0, 0.0, 0.0, 0.0, 0.0, 0.0, 0.0, 1.715163399279863E9, 0.0, 2024-05-08 13:16:39.279
70.0, 2294.183050892717, 0.0, 0.0, 0.0, 0.0, 0.0, 0.0, 0.0, 0.1, -0.042, 0.99, 192.0, 0.0, 0.0, 0.0, 0.0, 0.0, 0.0, 0.0, 0.0, 0.0, 1.7151633992798803E9, 0.0, 2024-05-08 13:16:39.279
71.0, 2258.8225911644213, 0.0, 0.0, 0.0, 0.0, 0.0, 0.0, 0.0, 0.1, -0.042, 0.99, 192.0, 0.0, 0.0, 0.0, 0.0, 0.0, 0.0, 0.0, 0.0, 0.0, 1.7151633992798991E9, 0.0, 2024-05-08 13:16:39.279
72.0, 2471.4100326788466, 0.0, 0.0, 0.0, 0.0, 0.0, 0.0, 0.0, 0.1, -0.042, 0.99, 192.0, 0.0, 0.0, 0.0, 0.0, 0.0, 0.0, 0.0, 0.0, 0.0, 1.7151633992799163E9, 0.0, 2024-05-08 13:16:39.279
73.0, 2660.9528256598505, 0.0, 0.0, 0.0, 0.0, 0.0, 0.0, 0.0, 0.1, -0.042, 0.99, 192.0, 0.0, 0.0, 0.0, 0.0, 0.0, 0.0, 0.0, 0.0, 0.0, 1.7151633992799332E9, 0.0, 2024-05-08 13:16:39.279
74.0, 2561.532266322645, 0.0, 0.0, 0.0, 0.0, 0.0, 0.0, 0.0, 0.1, -0.042, 0.99, 192.0, 0.0, 0.0, 0.0, 0.0, 0.0, 0.0, 0.0, 0.0, 0.0, 1.7151633992799504E9, 0.0, 2024-05-08 13:16:39.279
75.0, 2326.704839075189, 0.0, 0.0, 0.0, 0.0, 0.0, 0.0, 0.0, 0.1, -0.042, 0.99, 192.0, 0.0, 0.0, 0.0, 0.0, 0.0, 0.0, 0.0, 0.0, 0.0, 1.7151633992799735E9, 0.0, 2024-05-08 13:16:39.279
76.0, 2294.920658459742, 0.0, 0.0, 0.0, 0.0, 0.0, 0.0, 0.0, 0.1, -0.042, 0.99, 192.0, 0.0, 0.0, 0.0, 0.0, 0.0, 0.0, 0.0, 0.0, 0.0, 1.715163399280113E9, 0.0, 2024-05-08 13:16:39.280
77.0, 2488.0620822980504, 0.0, 0.0, 0.0, 0.0, 0.0, 0.0, 0.0, 0.094, -0.04, 0.992, 192.0, 2.0, 240.0, 254.0, 192.0, 31.0, 0.0, 0.0, 0.0, 0.0, 1.7151633992801328E9, 0.0, 2024-05-08 13:16:39.280
78.0, 2651.2521685662473, 0.0, 0.0, 0.0, 0.0, 0.0, 0.0, 0.0, 0.094, -0.04, 0.992, 192.0, 0.0, 0.0, 0.0, 0.0, 0.0, 0.0, 0.0, 0.0, 0.0, 1.7151633992801535E9, 0.0, 2024-05-08 13:16:39.280
79.0, 2517.6781437013324, 0.0, 0.0, 0.0, 0.0, 0.0, 0.0, 0.0, 0.094, -0.04, 0.992, 192.0, 0.0, 0.0, 0.0, 0.0, 0.0, 0.0, 0.0, 0.0, 0.0, 1.7151633992801712E9, 0.0, 2024-05-08 13:16:39.280
80.0, 2290.204440379672, 0.0, 0.0, 0.0, 0.0, 0.0, 0.0, 0.0, 0.094, -0.04, 0.992, 192.0, 0.0, 0.0, 0.0, 0.0, 0.0, 0.0, 0.0, 0.0, 0.0, 1.7151633992801883E9, 0.0, 2024-05-08 13:16:39.280
81.0, 2233.900396096754, 0.0, 0.0, 0.0, 0.0, 0.0, 0.0, 0.0, 0.094, -0.04, 0.992, 192.0, 0.0, 0.0, 0.0, 0.0, 0.0, 0.0, 0.0, 0.0, 0.0, 1.715163399280208E9, 0.0, 2024-05-08 13:16:39.280
82.0, 2412.066151150006, 0.0, 0.0, 0.0, 0.0, 0.0, 0.0, 0.0, 0.094, -0.04, 0.992, 192.0, 0.0, 0.0, 0.0, 0.0, 0.0, 0.0, 0.0, 0.0, 0.0, 1.7151633992802253E9, 0.0, 2024-05-08 13:16:39.280
83.0, 2568.0813274480497, 0.0, 0.0, 0.0, 0.0, 0.0, 0.0, 0.0, 0.094, -0.04, 0.992, 192.0, 0.0, 0.0, 0.0, 0.0, 0.0, 0.0, 0.0, 0.0, 0.0, 1.7151633992802424E9, 0.0, 2024-05-08 13:16:39.280
84.0, 2435.9601659727296, 0.0, 0.0, 0.0, 0.0, 0.0, 0.0, 0.0, 0.094, -0.04, 0.992, 192.0, 0.0, 0.0, 0.0, 0.0, 0.0, 0.0, 0.0, 0.0, 0.0, 1.7151633992802613E9, 0.0, 2024-05-08 13:16:39.280
85.0, 2203.569078870902, 0.0, 0.0, 0.0, 0.0, 0.0, 0.0, 0.0, 0.094, -0.04, 0.992, 192.0, 0.0, 0.0, 0.0, 0.0, 0.0, 0.0, 0.0, 0.0, 0.0, 1.7151633992802832E9, 0.0, 2024-05-08 13:16:39.280
86.0, 2128.310755289883, 0.0, 0.0, 0.0, 0.0, 0.0, 0.0, 0.0, 0.094, -0.04, 0.992, 192.0, 0.0, 0.0, 0.0, 0.0, 0.0, 0.0, 0.0, 0.0, 0.0, 1.7151633992803056E9, 0.0, 2024-05-08 13:16:39.280
87.0, 2306.7000277876887, 0.0, 0.0, 0.0, 0.0, 0.0, 0.0, 0.0, 0.092, -0.034, 0.992, 192.0, 2.0, 224.0, 254.0, 240.0, 31.0, 0.0, 0.0, 0.0, 0.0, 1.7151633992803268E9, 0.0, 2024-05-08 13:16:39.280
88.0, 2476.103899014461, 0.0, 0.0, 0.0, 0.0, 0.0, 0.0, 0.0, 0.092, -0.034, 0.992, 192.0, 0.0, 0.0, 0.0, 0.0, 0.0, 0.0, 0.0, 0.0, 0.0, 1.7151633992803488E9, 0.0, 2024-05-08 13:16:39.280
89.0, 2353.5492841660125, 0.0, 0.0, 0.0, 0.0, 0.0, 0.0, 0.0, 0.092, -0.034, 0.992, 192.0, 0.0, 0.0, 0.0, 0.0, 0.0, 0.0, 0.0, 0.0, 0.0, 1.715163399280366E9, 0.0, 2024-05-08 13:16:39.280
90.0, 2075.381824419716, 0.0, 0.0, 0.0, 0.0, 0.0, 0.0, 0.0, 0.092, -0.034, 0.992, 192.0, 0.0, 0.0, 0.0, 0.0, 0.0, 0.0, 0.0, 0.0, 0.0, 1.715163399280385E9, 0.0, 2024-05-08 13:16:39.280
91.0, 1949.0497647583206, 0.0, 0.0, 0.0, 0.0, 0.0, 0.0, 0.0, 0.092, -0.034, 0.992, 192.0, 0.0, 0.0, 0.0, 0.0, 0.0, 0.0, 0.0, 0.0, 0.0, 1.7151633992804096E9, 0.0, 2024-05-08 13:16:39.280
92.0, 2095.6772083851347, 0.0, 0.0, 0.0, 0.0, 0.0, 0.0, 0.0, 0.092, -0.034, 0.992, 192.0, 0.0, 0.0, 0.0, 0.0, 0.0, 0.0, 0.0, 0.0, 0.0, 1.715163399280428E9, 0.0, 2024-05-08 13:16:39.280
93.0, 2304.889536486809, 0.0, 0.0, 0.0, 0.0, 0.0, 0.0, 0.0, 0.092, -0.034, 0.992, 192.0, 0.0, 0.0, 0.0, 0.0, 0.0, 0.0, 0.0, 0.0, 0.0, 1.7151633992804658E9, 0.0, 2024-05-08 13:16:39.280
94.0, 2121.873452886755, 0.0, 0.0, 0.0, 0.0, 0.0, 0.0, 0.0, 0.092, -0.034, 0.992, 192.0, 0.0, 0.0, 0.0, 0.0, 0.0, 0.0, 0.0, 0.0, 0.0, 1.715163399280483E9, 0.0, 2024-05-08 13:16:39.280
95.0, 1841.716687883936, 0.0, 0.0, 0.0, 0.0, 0.0, 0.0, 0.0, 0.092, -0.034, 0.992, 192.0, 0.0, 0.0, 0.0, 0.0, 0.0, 0.0, 0.0, 0.0, 0.0, 1.7151633992805E9, 0.0, 2024-05-08 13:16:39.280
96.0, 1705.1922327509205, 0.0, 0.0, 0.0, 0.0, 0.0, 0.0, 0.0, 0.092, -0.034, 0.992, 192.0, 0.0, 0.0, 0.0, 0.0, 0.0, 0.0, 0.0, 0.0, 0.0, 1.7151633992805176E9, 0.0, 2024-05-08 13:16:39.280
97.0, 1808.0996642231542, 0.0, 0.0, 0.0, 0.0, 0.0, 0.0, 0.0, 0.098, -0.034, 0.99, 192.0, 3.0, 16.0, 254.0, 240.0, 30.0, 240.0, 0.0, 0.0, 0.0, 1.7151633992805347E9, 0.0, 2024-05-08 13:16:39.280
98.0, 1914.7398370194242, 0.0, 0.0, 0.0, 0.0, 0.0, 0.0, 0.0, 0.098, -0.034, 0.99, 192.0, 0.0, 0.0, 0.0, 0.0, 0.0, 0.0, 0.0, 0.0, 0.0, 1.7151633992805529E9, 0.0, 2024-05-08 13:16:39.280
99.0, 1773.0297771727774, 0.0, 0.0, 0.0, 0.0, 0.0, 0.0, 0.0, 0.098, -0.034, 0.99, 192.0, 0.0, 0.0, 0.0, 0.0, 0.0, 0.0, 0.0, 0.0, 0.0, 1.7151633992805703E9, 0.0, 2024-05-08 13:16:39.280
100.0, 1538.7164400477934, 0.0, 0.0, 0.0, 0.0, 0.0, 0.0, 0.0, 0.098, -0.034, 0.99, 192.0, 0.0, 0.0, 0.0, 0.0, 0.0, 0.0, 0.0, 0.0, 0.0, 1.7151633992805877E9, 0.0, 2024-05-08 13:16:39.280
101.0, 1403.2425169041774, 0.0, 0.0, 0.0, 0.0, 0.0, 0.0, 0.0, 0.098, -0.034, 0.99, 192.0, 0.0, 0.0, 0.0, 0.0, 0.0, 0.0, 0.0, 0.0, 0.0, 1.7151633992806048E9, 0.0, 2024-05-08 13:16:39.280
102.0, 1494.4823377707407, 0.0, 0.0, 0.0, 0.0, 0.0, 0.0, 0.0, 0.098, -0.034, 0.99, 192.0, 0.0, 0.0, 0.0, 0.0, 0.0, 0.0, 0.0, 0.0, 0.0, 1.715163399280622E9, 0.0, 2024-05-08 13:16:39.280
103.0, 1554.8096960556145, 0.0, 0.0, 0.0, 0.0, 0.0, 0.0, 0.0, 0.098, -0.034, 0.99, 192.0, 0.0, 0.0, 0.0, 0.0, 0.0, 0.0, 0.0, 0.0, 0.0, 1.715163399280646E9, 0.0, 2024-05-08 13:16:39.280
104.0, 1242.8911021818046, 0.0, 0.0, 0.0, 0.0, 0.0, 0.0, 0.0, 0.098, -0.034, 0.99, 192.0, 0.0, 0.0, 0.0, 0.0, 0.0, 0.0, 0.0, 0.0, 0.0, 1.7151633992806633E9, 0.0, 2024-05-08 13:16:39.280
105.0, 783.2051257139594, 0.0, 0.0, 0.0, 0.0, 0.0, 0.0, 0.0, 0.098, -0.034, 0.99, 192.0, 0.0, 0.0, 0.0, 0.0, 0.0, 0.0, 0.0, 0.0, 0.0, 1.7151633992806804E9, 0.0, 2024-05-08 13:16:39.280
106.0, 520.2368521972719, 0.0, 0.0, 0.0, 0.0, 0.0, 0.0, 0.0, 0.098, -0.034, 0.99, 192.0, 0.0, 0.0, 0.0, 0.0, 0.0, 0.0, 0.0, 0.0, 0.0, 1.7151633992806983E9, 0.0, 2024-05-08 13:16:39.280
107.0, 498.71212228681117, 0.0, 0.0, 0.0, 0.0, 0.0, 0.0, 0.0, 0.098, -0.036000000000000004, 0.988, 192.0, 3.0, 16.0, 254.0, 224.0, 30.0, 224.0, 0.0, 0.0, 0.0, 1.7151633992807186E9, 0.0, 2024-05-08 13:16:39.280
108.0, 541.2251402408052, 0.0, 0.0, 0.0, 0.0, 0.0, 0.0, 0.0, 0.098, -0.036000000000000004, 0.988, 192.0, 0.0, 0.0, 0.0, 0.0, 0.0, 0.0, 0.0, 0.0, 0.0, 1.7151633992807364E9, 0.0, 2024-05-08 13:16:39.280
109.0, 288.0022273066315, 0.0, 0.0, 0.0, 0.0, 0.0, 0.0, 0.0, 0.098, -0.036000000000000004, 0.988, 192.0, 0.0, 0.0, 0.0, 0.0, 0.0, 0.0, 0.0, 0.0, 0.0, 1.7151633992807572E9, 0.0, 2024-05-08 13:16:39.280
110.0, -72.84433517984571, 0.0, 0.0, 0.0, 0.0, 0.0, 0.0, 0.0, 0.098, -0.036000000000000004, 0.988, 192.0, 0.0, 0.0, 0.0, 0.0, 0.0, 0.0, 0.0, 0.0, 0.0, 1.7151633992807744E9, 0.0, 2024-05-08 13:16:39.280
111.0, -292.1820035197739, 0.0, 0.0, 0.0, 0.0, 0.0, 0.0, 0.0, 0.098, -0.036000000000000004, 0.988, 192.0, 0.0, 0.0, 0.0, 0.0, 0.0, 0.0, 0.0, 0.0, 0.0, 1.7151633992808025E9, 0.0, 2024-05-08 13:16:39.280
112.0, -244.84100876343356, 0.0, 0.0, 0.0, 0.0, 0.0, 0.0, 0.0, 0.098, -0.036000000000000004, 0.988, 192.0, 0.0, 0.0, 0.0, 0.0, 0.0, 0.0, 0.0, 0.0, 0.0, 1.7151633992808197E9, 0.0, 2024-05-08 13:16:39.280
113.0, -31.87358759326787, 0.0, 0.0, 0.0, 0.0, 0.0, 0.0, 0.0, 0.098, -0.036000000000000004, 0.988, 192.0, 0.0, 0.0, 0.0, 0.0, 0.0, 0.0, 0.0, 0.0, 0.0, 1.7151633992808373E9, 0.0, 2024-05-08 13:16:39.280
114.0, -92.22329762259695, 0.0, 0.0, 0.0, 0.0, 0.0, 0.0, 0.0, 0.098, -0.036000000000000004, 0.988, 192.0, 0.0, 0.0, 0.0, 0.0, 0.0, 0.0, 0.0, 0.0, 0.0, 1.7151633992808547E9, 0.0, 2024-05-08 13:16:39.280
115.0, -286.0129220501092, 0.0, 0.0, 0.0, 0.0, 0.0, 0.0, 0.0, 0.098, -0.036000000000000004, 0.988, 192.0, 0.0, 0.0, 0.0, 0.0, 0.0, 0.0, 0.0, 0.0, 0.0, 1.7151633992808723E9, 0.0, 2024-05-08 13:16:39.280
116.0, -271.3278259429724, 0.0, 0.0, 0.0, 0.0, 0.0, 0.0, 0.0, 0.098, -0.036000000000000004, 0.988, 192.0, 0.0, 0.0, 0.0, 0.0, 0.0, 0.0, 0.0, 0.0, 0.0, 1.7151633992808895E9, 0.0, 2024-05-08 13:16:39.280
117.0, -36.96978532907788, 0.0, 0.0, 0.0, 0.0, 0.0, 0.0, 0.0, 0.094, -0.044, 0.99, 192.0, 2.0, 240.0, 254.0, 160.0, 30.0, 240.0, 0.0, 0.0, 0.0, 1.715163399280907E9, 0.0, 2024-05-08 13:16:39.280
118.0, 142.22414996911883, 0.0, 0.0, 0.0, 0.0, 0.0, 0.0, 0.0, 0.094, -0.044, 0.99, 192.0, 0.0, 0.0, 0.0, 0.0, 0.0, 0.0, 0.0, 0.0, 0.0, 1.7151633992809243E9, 0.0, 2024-05-08 13:16:39.280
119.0, 66.63055022127035, 0.0, 0.0, 0.0, 0.0, 0.0, 0.0, 0.0, 0.094, -0.044, 0.99, 192.0, 0.0, 0.0, 0.0, 0.0, 0.0, 0.0, 0.0, 0.0, 0.0, 1.7151633992809422E9, 0.0, 2024-05-08 13:16:39.280
120.0, -99.15233840374214, 0.0, 0.0, 0.0, 0.0, 0.0, 0.0, 0.0, 0.094, -0.044, 0.99, 192.0, 0.0, 0.0, 0.0, 0.0, 0.0, 0.0, 0.0, 0.0, 0.0, 1.7151633992809591E9, 0.0, 2024-05-08 13:16:39.280
121.0, -103.24270763906333, 0.0, 0.0, 0.0, 0.0, 0.0, 0.0, 0.0, 0.094, -0.044, 0.99, 192.0, 0.0, 0.0, 0.0, 0.0, 0.0, 0.0, 0.0, 0.0, 0.0, 1.7151633992809772E9, 0.0, 2024-05-08 13:16:39.280
122.0, 119.00068748005481, 0.0, 0.0, 0.0, 0.0, 0.0, 0.0, 0.0, 0.094, -0.044, 0.99, 192.0, 0.0, 0.0, 0.0, 0.0, 0.0, 0.0, 0.0, 0.0, 0.0, 1.715163399281016E9, 0.0, 2024-05-08 13:16:39.281
123.0, 355.90682696185434, 0.0, 0.0, 0.0, 0.0, 0.0, 0.0, 0.0, 0.094, -0.044, 0.99, 192.0, 0.0, 0.0, 0.0, 0.0, 0.0, 0.0, 0.0, 0.0, 0.0, 1.7151633992810388E9, 0.0, 2024-05-08 13:16:39.281
124.0, 315.628983453391, 0.0, 0.0, 0.0, 0.0, 0.0, 0.0, 0.0, 0.094, -0.044, 0.99, 192.0, 0.0, 0.0, 0.0, 0.0, 0.0, 0.0, 0.0, 0.0, 0.0, 1.715163399281079E9, 0.0, 2024-05-08 13:16:39.281
125.0, 151.70128961816903, 0.0, 0.0, 0.0, 0.0, 0.0, 0.0, 0.0, 0.094, -0.044, 0.99, 192.0, 0.0, 0.0, 0.0, 0.0, 0.0, 0.0, 0.0, 0.0, 0.0, 1.7151633992811096E9, 0.0, 2024-05-08 13:16:39.281
126.0, 157.80331585446785, 0.0, 0.0, 0.0, 0.0, 0.0, 0.0, 0.0, 0.094, -0.044, 0.99, 192.0, 0.0, 0.0, 0.0, 0.0, 0.0, 0.0, 0.0, 0.0, 0.0, 1.7151633992811313E9, 0.0, 2024-05-08 13:16:39.281
127.0, 394.12830998042944, 0.0, 0.0, 0.0, 0.0, 0.0, 0.0, 0.0, 0.094, -0.036000000000000004, 0.99, 192.0, 2.0, 240.0, 254.0, 224.0, 30.0, 240.0, 0.0, 0.0, 0.0, 1.7151633992811491E9, 0.0, 2024-05-08 13:16:39.281
128.0, 631.8838157515306, 0.0, 0.0, 0.0, 0.0, 0.0, 0.0, 0.0, 0.094, -0.036000000000000004, 0.99, 192.0, 0.0, 0.0, 0.0, 0.0, 0.0, 0.0, 0.0, 0.0, 0.0, 1.7151633992811863E9, 0.0, 2024-05-08 13:16:39.281
129.0, 601.9101264369639, 0.0, 0.0, 0.0, 0.0, 0.0, 0.0, 0.0, 0.094, -0.036000000000000004, 0.99, 192.0, 0.0, 0.0, 0.0, 0.0, 0.0, 0.0, 0.0, 0.0, 0.0, 1.715163399281207E9, 0.0, 2024-05-08 13:16:39.281
130.0, 424.3255167395493, 0.0, 0.0, 0.0, 0.0, 0.0, 0.0, 0.0, 0.094, -0.036000000000000004, 0.99, 192.0, 0.0, 0.0, 0.0, 0.0, 0.0, 0.0, 0.0, 0.0, 0.0, 1.715163399281224E9, 0.0, 2024-05-08 13:16:39.281
131.0, 400.36444668346013, 0.0, 0.0, 0.0, 0.0, 0.0, 0.0, 0.0, 0.094, -0.036000000000000004, 0.99, 192.0, 0.0, 0.0, 0.0, 0.0, 0.0, 0.0, 0.0, 0.0, 0.0, 1.7151633992812414E9, 0.0, 2024-05-08 13:16:39.281
132.0, 619.6574115344777, 0.0, 0.0, 0.0, 0.0, 0.0, 0.0, 0.0, 0.094, -0.036000000000000004, 0.99, 192.0, 0.0, 0.0, 0.0, 0.0, 0.0, 0.0, 0.0, 0.0, 0.0, 1.7151633992812588E9, 0.0, 2024-05-08 13:16:39.281
133.0, 843.7783531878416, 0.0, 0.0, 0.0, 0.0, 0.0, 0.0, 0.0, 0.094, -0.036000000000000004, 0.99, 192.0, 0.0, 0.0, 0.0, 0.0, 0.0, 0.0, 0.0, 0.0, 0.0, 1.7151633992812757E9, 0.0, 2024-05-08 13:16:39.281
134.0, 809.3343149822134, 0.0, 0.0, 0.0, 0.0, 0.0, 0.0, 0.0, 0.094, -0.036000000000000004, 0.99, 192.0, 0.0, 0.0, 0.0, 0.0, 0.0, 0.0, 0.0, 0.0, 0.0, 1.7151633992812943E9, 0.0, 2024-05-08 13:16:39.281
135.0, 618.2716033782486, 0.0, 0.0, 0.0, 0.0, 0.0, 0.0, 0.0, 0.094, -0.036000000000000004, 0.99, 192.0, 0.0, 0.0, 0.0, 0.0, 0.0, 0.0, 0.0, 0.0, 0.0, 1.7151633992813113E9, 0.0, 2024-05-08 13:16:39.281
136.0, 610.2696788632487, 0.0, 0.0, 0.0, 0.0, 0.0, 0.0, 0.0, 0.094, -0.036000000000000004, 0.99, 192.0, 0.0, 0.0, 0.0, 0.0, 0.0, 0.0, 0.0, 0.0, 0.0, 1.7151633992813284E9, 0.0, 2024-05-08 13:16:39.281
137.0, 818.2750127643362, 0.0, 0.0, 0.0, 0.0, 0.0, 0.0, 0.0, 0.094, -0.034, 0.99, 192.0, 2.0, 240.0, 254.0, 240.0, 30.0, 240.0, 0.0, 0.0, 0.0, 1.7151633992813451E9, 0.0, 2024-05-08 13:16:39.281
138.0, 1044.139390485214, 0.0, 0.0, 0.0, 0.0, 0.0, 0.0, 0.0, 0.094, -0.034, 0.99, 192.0, 0.0, 0.0, 0.0, 0.0, 0.0, 0.0, 0.0, 0.0, 0.0, 1.7151633992813632E9, 0.0, 2024-05-08 13:16:39.281
139.0, 975.2066105850471, 0.0, 0.0, 0.0, 0.0, 0.0, 0.0, 0.0, 0.094, -0.034, 0.99, 192.0, 0.0, 0.0, 0.0, 0.0, 0.0, 0.0, 0.0, 0.0, 0.0, 1.715163399281381E9, 0.0, 2024-05-08 13:16:39.281
0.0, 0.0, 0.0, 0.0, 0.0, 0.0, 0.0, 0.0, 0.0, 0.098, -0.038, 0.99, 192.0, 3.0, 16.0, 254.0, 208.0, 30.0, 240.0, 0.0, 0.0, 0.0, 1.7151633993959243E9, 0.0, 2024-05-08 13:16:39.395
1.0, 9333.596746158213, 0.0, 0.0, 0.0, 0.0, 0.0, 0.0, 0.0, 0.098, -0.038, 0.99, 192.0, 0.0, 0.0, 0.0, 0.0, 0.0, 0.0, 0.0, 0.0, 0.0, 1.7151633998768697E9, 0.0, 2024-05-08 13:16:39.876
2.0, 8380.18308641709, 0.0, 0.0, 0.0, 0.0, 0.0, 0.0, 0.0, 0.098, -0.038, 0.99, 192.0, 0.0, 0.0, 0.0, 0.0, 0.0, 0.0, 0.0, 0.0, 0.0, 1.715163399876951E9, 0.0, 2024-05-08 13:16:39.876
3.0, 8416.638781623697, 0.0, 0.0, 0.0, 0.0, 0.0, 0.0, 0.0, 0.098, -0.038, 0.99, 192.0, 0.0, 0.0, 0.0, 0.0, 0.0, 0.0, 0.0, 0.0, 0.0, 1.71516339987701E9, 0.0, 2024-05-08 13:16:39.877
4.0, 9333.283821735839, 0.0, 0.0, 0.0, 0.0, 0.0, 0.0, 0.0, 0.098, -0.038, 0.99, 192.0, 0.0, 0.0, 0.0, 0.0, 0.0, 0.0, 0.0, 0.0, 0.0, 1.7151633998770688E9, 0.0, 2024-05-08 13:16:39.877
5.0, 9780.095193397427, 0.0, 0.0, 0.0, 0.0, 0.0, 0.0, 0.0, 0.098, -0.038, 0.99, 192.0, 0.0, 0.0, 0.0, 0.0, 0.0, 0.0, 0.0, 0.0, 0.0, 1.715163399877127E9, 0.0, 2024-05-08 13:16:39.877
6.0, 8921.855261547002, 0.0, 0.0, 0.0, 0.0, 0.0, 0.0, 0.0, 0.098, -0.038, 0.99, 192.0, 0.0, 0.0, 0.0, 0.0, 0.0, 0.0, 0.0, 0.0, 0.0, 1.7151633998772347E9, 0.0, 2024-05-08 13:16:39.877
7.0, 7941.7759706706975, 0.0, 0.0, 0.0, 0.0, 0.0, 0.0, 0.0, 0.098, -0.038, 0.99, 192.0, 0.0, 0.0, 0.0, 0.0, 0.0, 0.0, 0.0, 0.0, 0.0, 1.715163399877287E9, 0.0, 2024-05-08 13:16:39.877
8.0, 7961.3784505580015, 0.0, 0.0, 0.0, 0.0, 0.0, 0.0, 0.0, 0.1, -0.04, 0.98, 192.0, 3.0, 32.0, 254.0, 192.0, 30.0, 160.0, 0.0, 0.0, 0.0, 1.7151633998773189E9, 0.0, 2024-05-08 13:16:39.877
9.0, 8900.866973503467, 0.0, 0.0, 0.0, 0.0, 0.0, 0.0, 0.0, 0.1, -0.04, 0.98, 192.0, 0.0, 0.0, 0.0, 0.0, 0.0, 0.0, 0.0, 0.0, 0.0, 1.7151633998773522E9, 0.0, 2024-05-08 13:16:39.877
10.0, 9387.039767150853, 0.0, 0.0, 0.0, 0.0, 0.0, 0.0, 0.0, 0.1, -0.04, 0.98, 192.0, 0.0, 0.0, 0.0, 0.0, 0.0, 0.0, 0.0, 0.0, 0.0, 1.7151633998773835E9, 0.0, 2024-05-08 13:16:39.877
11.0, 8525.938812010147, 0.0, 0.0, 0.0, 0.0, 0.0, 0.0, 0.0, 0.1, -0.04, 0.98, 192.0, 0.0, 0.0, 0.0, 0.0, 0.0, 0.0, 0.0, 0.0, 0.0, 1.7151633998774147E9, 0.0, 2024-05-08 13:16:39.877
12.0, 7539.399866986259, 0.0, 0.0, 0.0, 0.0, 0.0, 0.0, 0.0, 0.1, -0.04, 0.98, 192.0, 0.0, 0.0, 0.0, 0.0, 0.0, 0.0, 0.0, 0.0, 0.0, 1.7151633998774457E9, 0.0, 2024-05-08 13:16:39.877
13.0, 7560.656375963256, 0.0, 0.0, 0.0, 0.0, 0.0, 0.0, 0.0, 0.1, -0.04, 0.98, 192.0, 0.0, 0.0, 0.0, 0.0, 0.0, 0.0, 0.0, 0.0, 0.0, 1.7151633998774796E9, 0.0, 2024-05-08 13:16:39.877
14.0, 8438.543491189897, 0.0, 0.0, 0.0, 0.0, 0.0, 0.0, 0.0, 0.1, -0.04, 0.98, 192.0, 0.0, 0.0, 0.0, 0.0, 0.0, 0.0, 0.0, 0.0, 0.0, 1.715163399877511E9, 0.0, 2024-05-08 13:16:39.877
15.0, 8899.928200236345, 0.0, 0.0, 0.0, 0.0, 0.0, 0.0, 0.0, 0.1, -0.04, 0.98, 192.0, 0.0, 0.0, 0.0, 0.0, 0.0, 0.0, 0.0, 0.0, 0.0, 1.7151633998775415E9, 0.0, 2024-05-08 13:16:39.877
16.0, 8051.0760010571485, 0.0, 0.0, 0.0, 0.0, 0.0, 0.0, 0.0, 0.1, -0.04, 0.98, 192.0, 0.0, 0.0, 0.0, 0.0, 0.0, 0.0, 0.0, 0.0, 0.0, 1.7151633998775728E9, 0.0, 2024-05-08 13:16:39.877
17.0, 7023.38749449104, 0.0, 0.0, 0.0, 0.0, 0.0, 0.0, 0.0, 0.1, -0.04, 0.98, 192.0, 0.0, 0.0, 0.0, 0.0, 0.0, 0.0, 0.0, 0.0, 0.0, 1.715163399877606E9, 0.0, 2024-05-08 13:16:39.877
18.0, 7010.267020495775, 0.0, 0.0, 0.0, 0.0, 0.0, 0.0, 0.0, 0.094, -0.044, 0.984, 192.0, 2.0, 240.0, 254.0, 160.0, 30.0, 192.0, 0.0, 0.0, 0.0, 1.7151633998776374E9, 0.0, 2024-05-08 13:16:39.877
19.0, 7907.980133054273, 0.0, 0.0, 0.0, 0.0, 0.0, 0.0, 0.0, 0.094, -0.044, 0.984, 192.0, 0.0, 0.0, 0.0, 0.0, 0.0, 0.0, 0.0, 0.0, 0.0, 1.7151633998776708E9, 0.0, 2024-05-08 13:16:39.877
20.0, 8358.41248731762, 0.0, 0.0, 0.0, 0.0, 0.0, 0.0, 0.0, 0.094, -0.044, 0.984, 192.0, 0.0, 0.0, 0.0, 0.0, 0.0, 0.0, 0.0, 0.0, 0.0, 1.715163399877704E9, 0.0, 2024-05-08 13:16:39.877
21.0, 7526.212337757628, 0.0, 0.0, 0.0, 0.0, 0.0, 0.0, 0.0, 0.094, -0.044, 0.984, 192.0, 0.0, 0.0, 0.0, 0.0, 0.0, 0.0, 0.0, 0.0, 0.0, 1.715163399877735E9, 0.0, 2024-05-08 13:16:39.877
22.0, 6537.751142710584, 0.0, 0.0, 0.0, 0.0, 0.0, 0.0, 0.0, 0.094, -0.044, 0.984, 192.0, 0.0, 0.0, 0.0, 0.0, 0.0, 0.0, 0.0, 0.0, 0.0, 1.7151633998777657E9, 0.0, 2024-05-08 13:16:39.877
23.0, 6577.067861207469, 0.0, 0.0, 0.0, 0.0, 0.0, 0.0, 0.0, 0.094, -0.044, 0.984, 192.0, 0.0, 0.0, 0.0, 0.0, 0.0, 0.0, 0.0, 0.0, 0.0, 1.715163399877797E9, 0.0, 2024-05-08 13:16:39.877
24.0, 7546.194797300673, 0.0, 0.0, 0.0, 0.0, 0.0, 0.0, 0.0, 0.094, -0.044, 0.984, 192.0, 0.0, 0.0, 0.0, 0.0, 0.0, 0.0, 0.0, 0.0, 0.0, 1.7151633998778749E9, 0.0, 2024-05-08 13:16:39.877
25.0, 8115.001990199326, 0.0, 0.0, 0.0, 0.0, 0.0, 0.0, 0.0, 0.094, -0.044, 0.984, 192.0, 0.0, 0.0, 0.0, 0.0, 0.0, 0.0, 0.0, 0.0, 0.0, 1.7151633998779085E9, 0.0, 2024-05-08 13:16:39.877
26.0, 7374.488696395004, 0.0, 0.0, 0.0, 0.0, 0.0, 0.0, 0.0, 0.094, -0.044, 0.984, 192.0, 0.0, 0.0, 0.0, 0.0, 0.0, 0.0, 0.0, 0.0, 0.0, 1.7151633998779423E9, 0.0, 2024-05-08 13:16:39.877
27.0, 6436.184815905669, 0.0, 0.0, 0.0, 0.0, 0.0, 0.0, 0.0, 0.094, -0.044, 0.984, 192.0, 0.0, 0.0, 0.0, 0.0, 0.0, 0.0, 0.0, 0.0, 0.0, 1.7151633998779736E9, 0.0, 2024-05-08 13:16:39.877
28.0, 6508.135081307302, 0.0, 0.0, 0.0, 0.0, 0.0, 0.0, 0.0, 0.094, -0.042, 0.982, 192.0, 2.0, 240.0, 254.0, 176.0, 30.0, 176.0, 0.0, 0.0, 0.0, 1.7151633998780048E9, 0.0, 2024-05-08 13:16:39.878
29.0, 7515.751721352544, 0.0, 0.0, 0.0, 0.0, 0.0, 0.0, 0.0, 0.094, -0.042, 0.982, 192.0, 0.0, 0.0, 0.0, 0.0, 0.0, 0.0, 0.0, 0.0, 0.0, 1.7151633998780377E9, 0.0, 2024-05-08 13:16:39.878
30.0, 8080.200324082413, 0.0, 0.0, 0.0, 0.0, 0.0, 0.0, 0.0, 0.094, -0.042, 0.982, 192.0, 0.0, 0.0, 0.0, 0.0, 0.0, 0.0, 0.0, 0.0, 0.0, 1.7151633998780684E9, 0.0, 2024-05-08 13:16:39.878
31.0, 7332.69093426358, 0.0, 0.0, 0.0, 0.0, 0.0, 0.0, 0.0, 0.094, -0.042, 0.982, 192.0, 0.0, 0.0, 0.0, 0.0, 0.0, 0.0, 0.0, 0.0, 0.0, 1.7151633998781E9, 0.0, 2024-05-08 13:16:39.878
32.0, 6402.254867822513, 0.0, 0.0, 0.0, 0.0, 0.0, 0.0, 0.0, 0.094, -0.042, 0.982, 192.0, 0.0, 0.0, 0.0, 0.0, 0.0, 0.0, 0.0, 0.0, 0.0, 1.7151633998782313E9, 0.0, 2024-05-08 13:16:39.878
33.0, 6437.704734528629, 0.0, 0.0, 0.0, 0.0, 0.0, 0.0, 0.0, 0.094, -0.042, 0.982, 192.0, 0.0, 0.0, 0.0, 0.0, 0.0, 0.0, 0.0, 0.0, 0.0, 1.7151633998783045E9, 0.0, 2024-05-08 13:16:39.878
34.0, 7459.335918347349, 0.0, 0.0, 0.0, 0.0, 0.0, 0.0, 0.0, 0.094, -0.042, 0.982, 192.0, 0.0, 0.0, 0.0, 0.0, 0.0, 0.0, 0.0, 0.0, 0.0, 1.7151633998783464E9, 0.0, 2024-05-08 13:16:39.878
35.0, 8051.947719090906, 0.0, 0.0, 0.0, 0.0, 0.0, 0.0, 0.0, 0.094, -0.042, 0.982, 192.0, 0.0, 0.0, 0.0, 0.0, 0.0, 0.0, 0.0, 0.0, 0.0, 1.7151633998784E9, 0.0, 2024-05-08 13:16:39.878
36.0, 7318.318762578817, 0.0, 0.0, 0.0, 0.0, 0.0, 0.0, 0.0, 0.094, -0.042, 0.982, 192.0, 0.0, 0.0, 0.0, 0.0, 0.0, 0.0, 0.0, 0.0, 0.0, 1.7151633998784344E9, 0.0, 2024-05-08 13:16:39.878
37.0, 6396.555172986409, 0.0, 0.0, 0.0, 0.0, 0.0, 0.0, 0.0, 0.094, -0.042, 0.982, 192.0, 0.0, 0.0, 0.0, 0.0, 0.0, 0.0, 0.0, 0.0, 0.0, 1.7151633998784652E9, 0.0, 2024-05-08 13:16:39.878
38.0, 6467.94664477666, 0.0, 0.0, 0.0, 0.0, 0.0, 0.0, 0.0, 0.09, -0.038, 0.982, 192.0, 2.0, 208.0, 254.0, 208.0, 30.0, 176.0, 0.0, 0.0, 0.0, 1.7151633998784964E9, 0.0, 2024-05-08 13:16:39.878
39.0, 7469.125982418774, 0.0, 0.0, 0.0, 0.0, 0.0, 0.0, 0.0, 0.09, -0.038, 0.982, 192.0, 0.0, 0.0, 0.0, 0.0, 0.0, 0.0, 0.0, 0.0, 0.0, 1.7151633998785307E9, 0.0, 2024-05-08 13:16:39.878
40.0, 8093.03022539976, 0.0, 0.0, 0.0, 0.0, 0.0, 0.0, 0.0, 0.09, -0.038, 0.982, 192.0, 0.0, 0.0, 0.0, 0.0, 0.0, 0.0, 0.0, 0.0, 0.0, 1.7151633998785617E9, 0.0, 2024-05-08 13:16:39.878
41.0, 7394.247638493495, 0.0, 0.0, 0.0, 0.0, 0.0, 0.0, 0.0, 0.09, -0.038, 0.982, 192.0, 0.0, 0.0, 0.0, 0.0, 0.0, 0.0, 0.0, 0.0, 0.0, 1.7151633998786232E9, 0.0, 2024-05-08 13:16:39.878
42.0, 6497.04861605747, 0.0, 0.0, 0.0, 0.0, 0.0, 0.0, 0.0, 0.09, -0.038, 0.982, 192.0, 0.0, 0.0, 0.0, 0.0, 0.0, 0.0, 0.0, 0.0, 0.0, 1.7151633998786538E9, 0.0, 2024-05-08 13:16:39.878
43.0, 6593.384634659843, 0.0, 0.0, 0.0, 0.0, 0.0, 0.0, 0.0, 0.09, -0.038, 0.982, 192.0, 0.0, 0.0, 0.0, 0.0, 0.0, 0.0, 0.0, 0.0, 0.0, 1.7151633998786843E9, 0.0, 2024-05-08 13:16:39.878
44.0, 7620.514347614569, 0.0, 0.0, 0.0, 0.0, 0.0, 0.0, 0.0, 0.09, -0.038, 0.982, 192.0, 0.0, 0.0, 0.0, 0.0, 0.0, 0.0, 0.0, 0.0, 0.0, 1.715163399878715E9, 0.0, 2024-05-08 13:16:39.878
45.0, 8259.081334958237, 0.0, 0.0, 0.0, 0.0, 0.0, 0.0, 0.0, 0.09, -0.038, 0.982, 192.0, 0.0, 0.0, 0.0, 0.0, 0.0, 0.0, 0.0, 0.0, 0.0, 1.7151633998787453E9, 0.0, 2024-05-08 13:16:39.878
46.0, 7593.066405423451, 0.0, 0.0, 0.0, 0.0, 0.0, 0.0, 0.0, 0.09, -0.038, 0.982, 192.0, 0.0, 0.0, 0.0, 0.0, 0.0, 0.0, 0.0, 0.0, 0.0, 1.7151633998787792E9, 0.0, 2024-05-08 13:16:39.878
47.0, 6661.9150831598145, 0.0, 0.0, 0.0, 0.0, 0.0, 0.0, 0.0, 0.09, -0.038, 0.982, 192.0, 0.0, 0.0, 0.0, 0.0, 0.0, 0.0, 0.0, 0.0, 0.0, 1.7151633998788097E9, 0.0, 2024-05-08 13:16:39.878
48.0, 6717.548575109074, 0.0, 0.0, 0.0, 0.0, 0.0, 0.0, 0.0, 0.096, -0.038, 0.988, 192.0, 3.0, 0.0, 254.0, 208.0, 30.0, 224.0, 0.0, 0.0, 0.0, 1.715163399878842E9, 0.0, 2024-05-08 13:16:39.878
49.0, 7720.828976729987, 0.0, 0.0, 0.0, 0.0, 0.0, 0.0, 0.0, 0.096, -0.038, 0.988, 192.0, 0.0, 0.0, 0.0, 0.0, 0.0, 0.0, 0.0, 0.0, 0.0, 1.715163399878876E9, 0.0, 2024-05-08 13:16:39.878
50.0, 8365.319176354311, 0.0, 0.0, 0.0, 0.0, 0.0, 0.0, 0.0, 0.096, -0.038, 0.988, 192.0, 0.0, 0.0, 0.0, 0.0, 0.0, 0.0, 0.0, 0.0, 0.0, 1.7151633998789067E9, 0.0, 2024-05-08 13:16:39.878
51.0, 7701.8746974318865, 0.0, 0.0, 0.0, 0.0, 0.0, 0.0, 0.0, 0.096, -0.038, 0.988, 192.0, 0.0, 0.0, 0.0, 0.0, 0.0, 0.0, 0.0, 0.0, 0.0, 1.7151633998789372E9, 0.0, 2024-05-08 13:16:39.878
52.0, 6746.739953367705, 0.0, 0.0, 0.0, 0.0, 0.0, 0.0, 0.0, 0.096, -0.038, 0.988, 192.0, 0.0, 0.0, 0.0, 0.0, 0.0, 0.0, 0.0, 0.0, 0.0, 1.7151633998789678E9, 0.0, 2024-05-08 13:16:39.878
53.0, 6747.388153956909, 0.0, 0.0, 0.0, 0.0, 0.0, 0.0, 0.0, 0.096, -0.038, 0.988, 192.0, 0.0, 0.0, 0.0, 0.0, 0.0, 0.0, 0.0, 0.0, 0.0, 1.715163399879E9, 0.0, 2024-05-08 13:16:39.879
54.0, 7758.737535326188, 0.0, 0.0, 0.0, 0.0, 0.0, 0.0, 0.0, 0.096, -0.038, 0.988, 192.0, 0.0, 0.0, 0.0, 0.0, 0.0, 0.0, 0.0, 0.0, 0.0, 1.7151633998790307E9, 0.0, 2024-05-08 13:16:39.879
55.0, 8451.038116340413, 0.0, 0.0, 0.0, 0.0, 0.0, 0.0, 0.0, 0.096, -0.038, 0.988, 192.0, 0.0, 0.0, 0.0, 0.0, 0.0, 0.0, 0.0, 0.0, 0.0, 1.715163399879061E9, 0.0, 2024-05-08 13:16:39.879
56.0, 7844.255309612193, 0.0, 0.0, 0.0, 0.0, 0.0, 0.0, 0.0, 0.096, -0.038, 0.988, 192.0, 0.0, 0.0, 0.0, 0.0, 0.0, 0.0, 0.0, 0.0, 0.0, 1.715163399879092E9, 0.0, 2024-05-08 13:16:39.879
57.0, 6986.23889520632, 0.0, 0.0, 0.0, 0.0, 0.0, 0.0, 0.0, 0.096, -0.038, 0.988, 192.0, 0.0, 0.0, 0.0, 0.0, 0.0, 0.0, 0.0, 0.0, 0.0, 1.7151633998791225E9, 0.0, 2024-05-08 13:16:39.879
58.0, 7136.912004579545, 0.0, 0.0, 0.0, 0.0, 0.0, 0.0, 0.0, 0.088, -0.034, 0.984, 192.0, 2.0, 192.0, 254.0, 240.0, 30.0, 192.0, 0.0, 0.0, 0.0, 1.7151633998791528E9, 0.0, 2024-05-08 13:16:39.879
59.0, 8235.67905851353, 0.0, 0.0, 0.0, 0.0, 0.0, 0.0, 0.0, 0.088, -0.034, 0.984, 192.0, 0.0, 0.0, 0.0, 0.0, 0.0, 0.0, 0.0, 0.0, 0.0, 1.715163399879203E9, 0.0, 2024-05-08 13:16:39.879
60.0, 8939.446084433328, 0.0, 0.0, 0.0, 0.0, 0.0, 0.0, 0.0, 0.088, -0.034, 0.984, 192.0, 0.0, 0.0, 0.0, 0.0, 0.0, 0.0, 0.0, 0.0, 0.0, 1.7151633998792338E9, 0.0, 2024-05-08 13:16:39.879
61.0, 8306.176460525568, 0.0, 0.0, 0.0, 0.0, 0.0, 0.0, 0.0, 0.088, -0.034, 0.984, 192.0, 0.0, 0.0, 0.0, 0.0, 0.0, 0.0, 0.0, 0.0, 0.0, 1.7151633998792927E9, 0.0, 2024-05-08 13:16:39.879
62.0, 7370.375975415227, 0.0, 0.0, 0.0, 0.0, 0.0, 0.0, 0.0, 0.088, -0.034, 0.984, 192.0, 0.0, 0.0, 0.0, 0.0, 0.0, 0.0, 0.0, 0.0, 0.0, 1.7151633998793244E9, 0.0, 2024-05-08 13:16:39.879
63.0, 7396.840440850311, 0.0, 0.0, 0.0, 0.0, 0.0, 0.0, 0.0, 0.088, -0.034, 0.984, 192.0, 0.0, 0.0, 0.0, 0.0, 0.0, 0.0, 0.0, 0.0, 0.0, 1.7151633998793552E9, 0.0, 2024-05-08 13:16:39.879
64.0, 8420.796206092382, 0.0, 0.0, 0.0, 0.0, 0.0, 0.0, 0.0, 0.088, -0.034, 0.984, 192.0, 0.0, 0.0, 0.0, 0.0, 0.0, 0.0, 0.0, 0.0, 0.0, 1.7151633998793857E9, 0.0, 2024-05-08 13:16:39.879
65.0, 9097.607028199081, 0.0, 0.0, 0.0, 0.0, 0.0, 0.0, 0.0, 0.088, -0.034, 0.984, 192.0, 0.0, 0.0, 0.0, 0.0, 0.0, 0.0, 0.0, 0.0, 0.0, 1.7151633998794165E9, 0.0, 2024-05-08 13:16:39.879
66.0, 8500.63663728674, 0.0, 0.0, 0.0, 0.0, 0.0, 0.0, 0.0, 0.088, -0.034, 0.984, 192.0, 0.0, 0.0, 0.0, 0.0, 0.0, 0.0, 0.0, 0.0, 0.0, 1.715163399879449E9, 0.0, 2024-05-08 13:16:39.879
67.0, 7566.423126032726, 0.0, 0.0, 0.0, 0.0, 0.0, 0.0, 0.0, 0.088, -0.034, 0.984, 192.0, 0.0, 0.0, 0.0, 0.0, 0.0, 0.0, 0.0, 0.0, 0.0, 1.7151633998794792E9, 0.0, 2024-05-08 13:16:39.879
68.0, 7581.577608773424, 0.0, 0.0, 0.0, 0.0, 0.0, 0.0, 0.0, 0.08600000000000001, -0.036000000000000004, 0.986, 192.0, 2.0, 176.0, 254.0, 224.0, 30.0, 208.0, 0.0, 0.0, 0.0, 1.7151633998795097E9, 0.0, 2024-05-08 13:16:39.879
69.0, 8545.876568064281, 0.0, 0.0, 0.0, 0.0, 0.0, 0.0, 0.0, 0.08600000000000001, -0.036000000000000004, 0.986, 192.0, 0.0, 0.0, 0.0, 0.0, 0.0, 0.0, 0.0, 0.0, 0.0, 1.7151633998795419E9, 0.0, 2024-05-08 13:16:39.879
70.0, 9144.568043299681, 0.0, 0.0, 0.0, 0.0, 0.0, 0.0, 0.0, 0.08600000000000001, -0.036000000000000004, 0.986, 192.0, 0.0, 0.0, 0.0, 0.0, 0.0, 0.0, 0.0, 0.0, 0.0, 1.7151633998795724E9, 0.0, 2024-05-08 13:16:39.879
71.0, 8465.745564192006, 0.0, 0.0, 0.0, 0.0, 0.0, 0.0, 0.0, 0.08600000000000001, -0.036000000000000004, 0.986, 192.0, 0.0, 0.0, 0.0, 0.0, 0.0, 0.0, 0.0, 0.0, 0.0, 1.7151633998796024E9, 0.0, 2024-05-08 13:16:39.879
72.0, 7416.442920737615, 0.0, 0.0, 0.0, 0.0, 0.0, 0.0, 0.0, 0.08600000000000001, -0.036000000000000004, 0.986, 192.0, 0.0, 0.0, 0.0, 0.0, 0.0, 0.0, 0.0, 0.0, 0.0, 1.7151633998796346E9, 0.0, 2024-05-08 13:16:39.879
73.0, 7290.937875621066, 0.0, 0.0, 0.0, 0.0, 0.0, 0.0, 0.0, 0.08600000000000001, -0.036000000000000004, 0.986, 192.0, 0.0, 0.0, 0.0, 0.0, 0.0, 0.0, 0.0, 0.0, 0.0, 1.7151633998796651E9, 0.0, 2024-05-08 13:16:39.879
74.0, 8164.33229021219, 0.0, 0.0, 0.0, 0.0, 0.0, 0.0, 0.0, 0.08600000000000001, -0.036000000000000004, 0.986, 192.0, 0.0, 0.0, 0.0, 0.0, 0.0, 0.0, 0.0, 0.0, 0.0, 1.715163399879706E9, 0.0, 2024-05-08 13:16:39.879
75.0, 8743.421285560285, 0.0, 0.0, 0.0, 0.0, 0.0, 0.0, 0.0, 0.08600000000000001, -0.036000000000000004, 0.986, 192.0, 0.0, 0.0, 0.0, 0.0, 0.0, 0.0, 0.0, 0.0, 0.0, 1.7151633998797636E9, 0.0, 2024-05-08 13:16:39.879
76.0, 8005.590201090598, 0.0, 0.0, 0.0, 0.0, 0.0, 0.0, 0.0, 0.08600000000000001, -0.036000000000000004, 0.986, 192.0, 0.0, 0.0, 0.0, 0.0, 0.0, 0.0, 0.0, 0.0, 0.0, 1.7151633998799329E9, 0.0, 2024-05-08 13:16:39.879
77.0, 6940.976612684323, 0.0, 0.0, 0.0, 0.0, 0.0, 0.0, 0.0, 0.08600000000000001, -0.036000000000000004, 0.986, 192.0, 0.0, 0.0, 0.0, 0.0, 0.0, 0.0, 0.0, 0.0, 0.0, 1.71516339987995E9, 0.0, 2024-05-08 13:16:39.879
78.0, 6849.826198795581, 0.0, 0.0, 0.0, 0.0, 0.0, 0.0, 0.0, 0.09, -0.042, 0.98, 192.0, 2.0, 208.0, 254.0, 176.0, 30.0, 160.0, 0.0, 0.0, 0.0, 1.715163399879964E9, 0.0, 2024-05-08 13:16:39.879
79.0, 7738.5762618275, 0.0, 0.0, 0.0, 0.0, 0.0, 0.0, 0.0, 0.09, -0.042, 0.98, 192.0, 0.0, 0.0, 0.0, 0.0, 0.0, 0.0, 0.0, 0.0, 0.0, 1.7151633998799813E9, 0.0, 2024-05-08 13:16:39.879
80.0, 8339.994649886448, 0.0, 0.0, 0.0, 0.0, 0.0, 0.0, 0.0, 0.09, -0.042, 0.98, 192.0, 0.0, 0.0, 0.0, 0.0, 0.0, 0.0, 0.0, 0.0, 0.0, 1.715163399879996E9, 0.0, 2024-05-08 13:16:39.879
81.0, 7642.195539736216, 0.0, 0.0, 0.0, 0.0, 0.0, 0.0, 0.0, 0.09, -0.042, 0.98, 192.0, 0.0, 0.0, 0.0, 0.0, 0.0, 0.0, 0.0, 0.0, 0.0, 1.7151633998800101E9, 0.0, 2024-05-08 13:16:39.880
82.0, 6586.3661869008765, 0.0, 0.0, 0.0, 0.0, 0.0, 0.0, 0.0, 0.09, -0.042, 0.98, 192.0, 0.0, 0.0, 0.0, 0.0, 0.0, 0.0, 0.0, 0.0, 0.0, 1.715163399880028E9, 0.0, 2024-05-08 13:16:39.880
83.0, 6466.940816276171, 0.0, 0.0, 0.0, 0.0, 0.0, 0.0, 0.0, 0.09, -0.042, 0.98, 192.0, 0.0, 0.0, 0.0, 0.0, 0.0, 0.0, 0.0, 0.0, 0.0, 1.715163399880042E9, 0.0, 2024-05-08 13:16:39.880
84.0, 7380.054280764375, 0.0, 0.0, 0.0, 0.0, 0.0, 0.0, 0.0, 0.09, -0.042, 0.98, 192.0, 0.0, 0.0, 0.0, 0.0, 0.0, 0.0, 0.0, 0.0, 0.0, 1.7151633998800561E9, 0.0, 2024-05-08 13:16:39.880
85.0, 8007.713616813853, 0.0, 0.0, 0.0, 0.0, 0.0, 0.0, 0.0, 0.09, -0.042, 0.98, 192.0, 0.0, 0.0, 0.0, 0.0, 0.0, 0.0, 0.0, 0.0, 0.0, 1.715163399880072E9, 0.0, 2024-05-08 13:16:39.880
86.0, 7345.386725114194, 0.0, 0.0, 0.0, 0.0, 0.0, 0.0, 0.0, 0.09, -0.042, 0.98, 192.0, 0.0, 0.0, 0.0, 0.0, 0.0, 0.0, 0.0, 0.0, 0.0, 1.7151633998800862E9, 0.0, 2024-05-08 13:16:39.880
87.0, 6354.444486432611, 0.0, 0.0, 0.0, 0.0, 0.0, 0.0, 0.0, 0.094, -0.044, 0.98, 192.0, 2.0, 240.0, 254.0, 160.0, 30.0, 160.0, 0.0, 0.0, 0.0, 1.7151633998801E9, 0.0, 2024-05-08 13:16:39.880
88.0, 6266.937406890083, 0.0, 0.0, 0.0, 0.0, 0.0, 0.0, 0.0, 0.094, -0.044, 0.98, 192.0, 0.0, 0.0, 0.0, 0.0, 0.0, 0.0, 0.0, 0.0, 0.0, 1.7151633998801155E9, 0.0, 2024-05-08 13:16:39.880
89.0, 7196.9487901864995, 0.0, 0.0, 0.0, 0.0, 0.0, 0.0, 0.0, 0.094, -0.044, 0.98, 192.0, 0.0, 0.0, 0.0, 0.0, 0.0, 0.0, 0.0, 0.0, 0.0, 1.71516339988013E9, 0.0, 2024-05-08 13:16:39.880
90.0, 7924.699237906842, 0.0, 0.0, 0.0, 0.0, 0.0, 0.0, 0.0, 0.094, -0.044, 0.98, 192.0, 0.0, 0.0, 0.0, 0.0, 0.0, 0.0, 0.0, 0.0, 0.0, 1.7151633998801458E9, 0.0, 2024-05-08 13:16:39.880
91.0, 7331.9533266965545, 0.0, 0.0, 0.0, 0.0, 0.0, 0.0, 0.0, 0.094, -0.044, 0.98, 192.0, 0.0, 0.0, 0.0, 0.0, 0.0, 0.0, 0.0, 0.0, 0.0, 1.71516339988016E9, 0.0, 2024-05-08 13:16:39.880
92.0, 6316.334762136312, 0.0, 0.0, 0.0, 0.0, 0.0, 0.0, 0.0, 0.094, -0.044, 0.98, 192.0, 0.0, 0.0, 0.0, 0.0, 0.0, 0.0, 0.0, 0.0, 0.0, 1.7151633998801763E9, 0.0, 2024-05-08 13:16:39.880
93.0, 6235.846130352751, 0.0, 0.0, 0.0, 0.0, 0.0, 0.0, 0.0, 0.094, -0.044, 0.98, 192.0, 0.0, 0.0, 0.0, 0.0, 0.0, 0.0, 0.0, 0.0, 0.0, 1.7151633998801908E9, 0.0, 2024-05-08 13:16:39.880
94.0, 7248.916596045089, 0.0, 0.0, 0.0, 0.0, 0.0, 0.0, 0.0, 0.094, -0.044, 0.98, 192.0, 0.0, 0.0, 0.0, 0.0, 0.0, 0.0, 0.0, 0.0, 0.0, 1.7151633998802176E9, 0.0, 2024-05-08 13:16:39.880
95.0, 7935.159854311926, 0.0, 0.0, 0.0, 0.0, 0.0, 0.0, 0.0, 0.094, -0.044, 0.98, 192.0, 0.0, 0.0, 0.0, 0.0, 0.0, 0.0, 0.0, 0.0, 0.0, 1.7151633998802977E9, 0.0, 2024-05-08 13:16:39.880
96.0, 7357.166094442141, 0.0, 0.0, 0.0, 0.0, 0.0, 0.0, 0.0, 0.094, -0.044, 0.98, 192.0, 0.0, 0.0, 0.0, 0.0, 0.0, 0.0, 0.0, 0.0, 0.0, 1.715163399880316E9, 0.0, 2024-05-08 13:16:39.880
97.0, 6385.424004247667, 0.0, 0.0, 0.0, 0.0, 0.0, 0.0, 0.0, 0.092, -0.038, 0.984, 192.0, 2.0, 224.0, 254.0, 208.0, 30.0, 192.0, 0.0, 0.0, 0.0, 1.715163399880335E9, 0.0, 2024-05-08 13:16:39.880
98.0, 6350.532931152932, 0.0, 0.0, 0.0, 0.0, 0.0, 0.0, 0.0, 0.092, -0.038, 0.984, 192.0, 0.0, 0.0, 0.0, 0.0, 0.0, 0.0, 0.0, 0.0, 0.0, 1.715163399880356E9, 0.0, 2024-05-08 13:16:39.880
99.0, 7366.106792224264, 0.0, 0.0, 0.0, 0.0, 0.0, 0.0, 0.0, 0.092, -0.038, 0.984, 192.0, 0.0, 0.0, 0.0, 0.0, 0.0, 0.0, 0.0, 0.0, 0.0, 1.7151633998803751E9, 0.0, 2024-05-08 13:16:39.880
100.0, 8069.717355932875, 0.0, 0.0, 0.0, 0.0, 0.0, 0.0, 0.0, 0.092, -0.038, 0.984, 192.0, 0.0, 0.0, 0.0, 0.0, 0.0, 0.0, 0.0, 0.0, 0.0, 1.7151633998803933E9, 0.0, 2024-05-08 13:16:39.880
101.0, 7496.350407165338, 0.0, 0.0, 0.0, 0.0, 0.0, 0.0, 0.0, 0.092, -0.038, 0.984, 192.0, 0.0, 0.0, 0.0, 0.0, 0.0, 0.0, 0.0, 0.0, 0.0, 1.7151633998804133E9, 0.0, 2024-05-08 13:16:39.880
102.0, 6540.209834600668, 0.0, 0.0, 0.0, 0.0, 0.0, 0.0, 0.0, 0.092, -0.038, 0.984, 192.0, 0.0, 0.0, 0.0, 0.0, 0.0, 0.0, 0.0, 0.0, 0.0, 1.7151633998804324E9, 0.0, 2024-05-08 13:16:39.880
103.0, 6490.611313654342, 0.0, 0.0, 0.0, 0.0, 0.0, 0.0, 0.0, 0.092, -0.038, 0.984, 192.0, 0.0, 0.0, 0.0, 0.0, 0.0, 0.0, 0.0, 0.0, 0.0, 1.715163399880451E9, 0.0, 2024-05-08 13:16:39.880
104.0, 7470.042403941442, 0.0, 0.0, 0.0, 0.0, 0.0, 0.0, 0.0, 0.092, -0.038, 0.984, 192.0, 0.0, 0.0, 0.0, 0.0, 0.0, 0.0, 0.0, 0.0, 0.0, 1.715163399880469E9, 0.0, 2024-05-08 13:16:39.880
105.0, 8203.447843008977, 0.0, 0.0, 0.0, 0.0, 0.0, 0.0, 0.0, 0.092, -0.038, 0.984, 192.0, 0.0, 0.0, 0.0, 0.0, 0.0, 0.0, 0.0, 0.0, 0.0, 1.7151633998804903E9, 0.0, 2024-05-08 13:16:39.880
106.0, 7677.801868653521, 0.0, 0.0, 0.0, 0.0, 0.0, 0.0, 0.0, 0.092, -0.038, 0.984, 192.0, 0.0, 0.0, 0.0, 0.0, 0.0, 0.0, 0.0, 0.0, 0.0, 1.7151633998805096E9, 0.0, 2024-05-08 13:16:39.880
107.0, 6688.491307317175, 0.0, 0.0, 0.0, 0.0, 0.0, 0.0, 0.0, 0.094, -0.036000000000000004, 0.986, 192.0, 2.0, 240.0, 254.0, 224.0, 30.0, 208.0, 0.0, 0.0, 0.0, 1.715163399880535E9, 0.0, 2024-05-08 13:16:39.880
108.0, 6603.174698731268, 0.0, 0.0, 0.0, 0.0, 0.0, 0.0, 0.0, 0.094, -0.036000000000000004, 0.986, 192.0, 0.0, 0.0, 0.0, 0.0, 0.0, 0.0, 0.0, 0.0, 0.0, 1.715163399880556E9, 0.0, 2024-05-08 13:16:39.880
109.0, 7561.148114341273, 0.0, 0.0, 0.0, 0.0, 0.0, 0.0, 0.0, 0.094, -0.036000000000000004, 0.986, 192.0, 0.0, 0.0, 0.0, 0.0, 0.0, 0.0, 0.0, 0.0, 0.0, 1.7151633998805752E9, 0.0, 2024-05-08 13:16:39.880
110.0, 8306.355274481211, 0.0, 0.0, 0.0, 0.0, 0.0, 0.0, 0.0, 0.094, -0.036000000000000004, 0.986, 192.0, 0.0, 0.0, 0.0, 0.0, 0.0, 0.0, 0.0, 0.0, 0.0, 1.715163399880594E9, 0.0, 2024-05-08 13:16:39.880
111.0, 7738.084523449484, 0.0, 0.0, 0.0, 0.0, 0.0, 0.0, 0.0, 0.094, -0.036000000000000004, 0.986, 192.0, 0.0, 0.0, 0.0, 0.0, 0.0, 0.0, 0.0, 0.0, 0.0, 1.7151633998806903E9, 0.0, 2024-05-08 13:16:39.880
112.0, 6779.597017717007, 0.0, 0.0, 0.0, 0.0, 0.0, 0.0, 0.0, 0.094, -0.036000000000000004, 0.986, 192.0, 0.0, 0.0, 0.0, 0.0, 0.0, 0.0, 0.0, 0.0, 0.0, 1.7151633998807135E9, 0.0, 2024-05-08 13:16:39.880
113.0, 6671.928664675792, 0.0, 0.0, 0.0, 0.0, 0.0, 0.0, 0.0, 0.094, -0.036000000000000004, 0.986, 192.0, 0.0, 0.0, 0.0, 0.0, 0.0, 0.0, 0.0, 0.0, 0.0, 1.7151633998807328E9, 0.0, 2024-05-08 13:16:39.880
114.0, 7611.528946343536, 0.0, 0.0, 0.0, 0.0, 0.0, 0.0, 0.0, 0.094, -0.036000000000000004, 0.986, 192.0, 0.0, 0.0, 0.0, 0.0, 0.0, 0.0, 0.0, 0.0, 0.0, 1.715163399880752E9, 0.0, 2024-05-08 13:16:39.880
115.0, 8344.085019121769, 0.0, 0.0, 0.0, 0.0, 0.0, 0.0, 0.0, 0.094, -0.036000000000000004, 0.986, 192.0, 0.0, 0.0, 0.0, 0.0, 0.0, 0.0, 0.0, 0.0, 0.0, 1.7151633998807716E9, 0.0, 2024-05-08 13:16:39.880
116.0, 7798.523640456634, 0.0, 0.0, 0.0, 0.0, 0.0, 0.0, 0.0, 0.094, -0.036000000000000004, 0.986, 192.0, 0.0, 0.0, 0.0, 0.0, 0.0, 0.0, 0.0, 0.0, 0.0, 1.7151633998807917E9, 0.0, 2024-05-08 13:16:39.880
117.0, 6791.599904489506, 0.0, 0.0, 0.0, 0.0, 0.0, 0.0, 0.0, 0.096, -0.04, 0.986, 192.0, 3.0, 0.0, 254.0, 192.0, 30.0, 208.0, 0.0, 0.0, 0.0, 1.7151633998808138E9, 0.0, 2024-05-08 13:16:39.880
118.0, 6633.081332812469, 0.0, 0.0, 0.0, 0.0, 0.0, 0.0, 0.0, 0.096, -0.04, 0.986, 192.0, 0.0, 0.0, 0.0, 0.0, 0.0, 0.0, 0.0, 0.0, 0.0, 1.7151633998808367E9, 0.0, 2024-05-08 13:16:39.880
119.0, 7549.882835135799, 0.0, 0.0, 0.0, 0.0, 0.0, 0.0, 0.0, 0.096, -0.04, 0.986, 192.0, 0.0, 0.0, 0.0, 0.0, 0.0, 0.0, 0.0, 0.0, 0.0, 1.715163399880858E9, 0.0, 2024-05-08 13:16:39.880
120.0, 8274.928721777049, 0.0, 0.0, 0.0, 0.0, 0.0, 0.0, 0.0, 0.096, -0.04, 0.986, 192.0, 0.0, 0.0, 0.0, 0.0, 0.0, 0.0, 0.0, 0.0, 0.0, 1.7151633998808815E9, 0.0, 2024-05-08 13:16:39.880
121.0, 7743.180721185294, 0.0, 0.0, 0.0, 0.0, 0.0, 0.0, 0.0, 0.096, -0.04, 0.986, 192.0, 0.0, 0.0, 0.0, 0.0, 0.0, 0.0, 0.0, 0.0, 0.0, 1.7151634003562267E9, 0.0, 2024-05-08 13:16:40.356
122.0, 6709.971333738725, 0.0, 0.0, 0.0, 0.0, 0.0, 0.0, 0.0, 0.096, -0.04, 0.986, 192.0, 0.0, 0.0, 0.0, 0.0, 0.0, 0.0, 0.0, 0.0, 0.0, 1.715163400356321E9, 0.0, 2024-05-08 13:16:40.356
123.0, 6547.697668993195, 0.0, 0.0, 0.0, 0.0, 0.0, 0.0, 0.0, 0.096, -0.04, 0.986, 192.0, 0.0, 0.0, 0.0, 0.0, 0.0, 0.0, 0.0, 0.0, 0.0, 1.7151634003563669E9, 0.0, 2024-05-08 13:16:40.356
124.0, 7459.559435791903, 0.0, 0.0, 0.0, 0.0, 0.0, 0.0, 0.0, 0.096, -0.04, 0.986, 192.0, 0.0, 0.0, 0.0, 0.0, 0.0, 0.0, 0.0, 0.0, 0.0, 1.7151634003564184E9, 0.0, 2024-05-08 13:16:40.356
125.0, 8178.6821101524965, 0.0, 0.0, 0.0, 0.0, 0.0, 0.0, 0.0, 0.096, -0.04, 0.986, 192.0, 0.0, 0.0, 0.0, 0.0, 0.0, 0.0, 0.0, 0.0, 0.0, 1.715163400356482E9, 0.0, 2024-05-08 13:16:40.356
126.0, 7633.768932076566, 0.0, 0.0, 0.0, 0.0, 0.0, 0.0, 0.0, 0.096, -0.04, 0.986, 192.0, 0.0, 0.0, 0.0, 0.0, 0.0, 0.0, 0.0, 0.0, 0.0, 1.715163400356524E9, 0.0, 2024-05-08 13:16:40.356
127.0, 6594.636332349341, 0.0, 0.0, 0.0, 0.0, 0.0, 0.0, 0.0, 0.092, -0.042, 0.988, 192.0, 2.0, 224.0, 254.0, 176.0, 30.0, 224.0, 0.0, 0.0, 0.0, 1.715163400356567E9, 0.0, 2024-05-08 13:16:40.356
128.0, 6428.339353601856, 0.0, 0.0, 0.0, 0.0, 0.0, 0.0, 0.0, 0.092, -0.042, 0.988, 192.0, 0.0, 0.0, 0.0, 0.0, 0.0, 0.0, 0.0, 0.0, 0.0, 1.71516340035661E9, 0.0, 2024-05-08 13:16:40.356
129.0, 7325.046637659864, 0.0, 0.0, 0.0, 0.0, 0.0, 0.0, 0.0, 0.092, -0.042, 0.988, 192.0, 0.0, 0.0, 0.0, 0.0, 0.0, 0.0, 0.0, 0.0, 0.0, 1.7151634003567584E9, 0.0, 2024-05-08 13:16:40.356
130.0, 8077.182838580948, 0.0, 0.0, 0.0, 0.0, 0.0, 0.0, 0.0, 0.092, -0.042, 0.988, 192.0, 0.0, 0.0, 0.0, 0.0, 0.0, 0.0, 0.0, 0.0, 0.0, 1.715163400356773E9, 0.0, 2024-05-08 13:16:40.356
131.0, 7559.9411201406865, 0.0, 0.0, 0.0, 0.0, 0.0, 0.0, 0.0, 0.092, -0.042, 0.988, 192.0, 0.0, 0.0, 0.0, 0.0, 0.0, 0.0, 0.0, 0.0, 0.0, 1.715163400356789E9, 0.0, 2024-05-08 13:16:40.356
132.0, 6499.753177136562, 0.0, 0.0, 0.0, 0.0, 0.0, 0.0, 0.0, 0.092, -0.042, 0.988, 192.0, 0.0, 0.0, 0.0, 0.0, 0.0, 0.0, 0.0, 0.0, 0.0, 1.715163400356809E9, 0.0, 2024-05-08 13:16:40.356
133.0, 6296.106433404259, 0.0, 0.0, 0.0, 0.0, 0.0, 0.0, 0.0, 0.092, -0.042, 0.988, 192.0, 0.0, 0.0, 0.0, 0.0, 0.0, 0.0, 0.0, 0.0, 0.0, 1.7151634003568244E9, 0.0, 2024-05-08 13:16:40.356
134.0, 7218.920554986067, 0.0, 0.0, 0.0, 0.0, 0.0, 0.0, 0.0, 0.092, -0.042, 0.988, 192.0, 0.0, 0.0, 0.0, 0.0, 0.0, 0.0, 0.0, 0.0, 0.0, 1.7151634003568392E9, 0.0, 2024-05-08 13:16:40.356
135.0, 7973.157819885948, 0.0, 0.0, 0.0, 0.0, 0.0, 0.0, 0.0, 0.092, -0.042, 0.988, 192.0, 0.0, 0.0, 0.0, 0.0, 0.0, 0.0, 0.0, 0.0, 0.0, 1.7151634003568535E9, 0.0, 2024-05-08 13:16:40.356
136.0, 7440.024011137964, 0.0, 0.0, 0.0, 0.0, 0.0, 0.0, 0.0, 0.092, -0.042, 0.988, 192.0, 0.0, 0.0, 0.0, 0.0, 0.0, 0.0, 0.0, 0.0, 0.0, 1.7151634003568683E9, 0.0, 2024-05-08 13:16:40.356
137.0, 6365.083916793337, 0.0, 0.0, 0.0, 0.0, 0.0, 0.0, 0.0, 0.094, -0.034, 0.988, 192.0, 2.0, 240.0, 254.0, 240.0, 30.0, 224.0, 0.0, 0.0, 0.0, 1.7151634003568828E9, 0.0, 2024-05-08 13:16:40.356
138.0, 6163.068850406272, 0.0, 0.0, 0.0, 0.0, 0.0, 0.0, 0.0, 0.094, -0.034, 0.988, 192.0, 0.0, 0.0, 0.0, 0.0, 0.0, 0.0, 0.0, 0.0, 0.0, 1.7151634003569007E9, 0.0, 2024-05-08 13:16:40.356
139.0, 7109.9781525109, 0.0, 0.0, 0.0, 0.0, 0.0, 0.0, 0.0, 0.094, -0.034, 0.988, 192.0, 0.0, 0.0, 0.0, 0.0, 0.0, 0.0, 0.0, 0.0, 0.0, 1.7151634003569152E9, 0.0, 2024-05-08 13:16:40.356
140.0, 7848.5021410587005, 0.0, 0.0, 0.0, 0.0, 0.0, 0.0, 0.0, 0.094, -0.034, 0.988, 192.0, 0.0, 0.0, 0.0, 0.0, 0.0, 0.0, 0.0, 0.0, 0.0, 1.7151634003569293E9, 0.0, 2024-05-08 13:16:40.356
141.0, 7352.204007173063, 0.0, 0.0, 0.0, 0.0, 0.0, 0.0, 0.0, 0.094, -0.034, 0.988, 192.0, 0.0, 0.0, 0.0, 0.0, 0.0, 0.0, 0.0, 0.0, 0.0, 1.7151634003569434E9, 0.0, 2024-05-08 13:16:40.356
142.0, 6322.257974416969, 0.0, 0.0, 0.0, 0.0, 0.0, 0.0, 0.0, 0.094, -0.034, 0.988, 192.0, 0.0, 0.0, 0.0, 0.0, 0.0, 0.0, 0.0, 0.0, 0.0, 1.7151634003569577E9, 0.0, 2024-05-08 13:16:40.356
143.0, 6174.870571478674, 0.0, 0.0, 0.0, 0.0, 0.0, 0.0, 0.0, 0.094, -0.034, 0.988, 192.0, 0.0, 0.0, 0.0, 0.0, 0.0, 0.0, 0.0, 0.0, 0.0, 1.7151634003569717E9, 0.0, 2024-05-08 13:16:40.356
144.0, 7124.976173040411, 0.0, 0.0, 0.0, 0.0, 0.0, 0.0, 0.0, 0.094, -0.034, 0.988, 192.0, 0.0, 0.0, 0.0, 0.0, 0.0, 0.0, 0.0, 0.0, 0.0, 1.7151634003569868E9, 0.0, 2024-05-08 13:16:40.356
145.0, 7912.741054623253, 0.0, 0.0, 0.0, 0.0, 0.0, 0.0, 0.0, 0.094, -0.034, 0.988, 192.0, 0.0, 0.0, 0.0, 0.0, 0.0, 0.0, 0.0, 0.0, 0.0, 1.7151634003570025E9, 0.0, 2024-05-08 13:16:40.357
146.0, 7469.796534752433, 0.0, 0.0, 0.0, 0.0, 0.0, 0.0, 0.0, 0.094, -0.034, 0.988, 192.0, 0.0, 0.0, 0.0, 0.0, 0.0, 0.0, 0.0, 0.0, 0.0, 1.7151634003570163E9, 0.0, 2024-05-08 13:16:40.357
147.0, 6447.383039877777, 0.0, 0.0, 0.0, 0.0, 0.0, 0.0, 0.0, 0.098, -0.036000000000000004, 0.988, 192.0, 3.0, 16.0, 254.0, 224.0, 30.0, 224.0, 0.0, 0.0, 0.0, 1.7151634003570628E9, 0.0, 2024-05-08 13:16:40.357
148.0, 6280.460212285544, 0.0, 0.0, 0.0, 0.0, 0.0, 0.0, 0.0, 0.098, -0.036000000000000004, 0.988, 192.0, 0.0, 0.0, 0.0, 0.0, 0.0, 0.0, 0.0, 0.0, 0.0, 1.715163400357083E9, 0.0, 2024-05-08 13:16:40.357
149.0, 7215.56779331777, 0.0, 0.0, 0.0, 0.0, 0.0, 0.0, 0.0, 0.098, -0.036000000000000004, 0.988, 192.0, 0.0, 0.0, 0.0, 0.0, 0.0, 0.0, 0.0, 0.0, 0.0, 1.7151634003571E9, 0.0, 2024-05-08 13:16:40.357
150.0, 7976.622340276521, 0.0, 0.0, 0.0, 0.0, 0.0, 0.0, 0.0, 0.098, -0.036000000000000004, 0.988, 192.0, 0.0, 0.0, 0.0, 0.0, 0.0, 0.0, 0.0, 0.0, 0.0, 1.715163400357117E9, 0.0, 2024-05-08 13:16:40.357
151.0, 7498.652636844235, 0.0, 0.0, 0.0, 0.0, 0.0, 0.0, 0.0, 0.098, -0.036000000000000004, 0.988, 192.0, 0.0, 0.0, 0.0, 0.0, 0.0, 0.0, 0.0, 0.0, 0.0, 1.7151634003571367E9, 0.0, 2024-05-08 13:16:40.357
152.0, 6435.268394383001, 0.0, 0.0, 0.0, 0.0, 0.0, 0.0, 0.0, 0.098, -0.036000000000000004, 0.988, 192.0, 0.0, 0.0, 0.0, 0.0, 0.0, 0.0, 0.0, 0.0, 0.0, 1.715163400357154E9, 0.0, 2024-05-08 13:16:40.357
153.0, 6198.876345023674, 0.0, 0.0, 0.0, 0.0, 0.0, 0.0, 0.0, 0.098, -0.036000000000000004, 0.988, 192.0, 0.0, 0.0, 0.0, 0.0, 0.0, 0.0, 0.0, 0.0, 0.0, 1.7151634003571715E9, 0.0, 2024-05-08 13:16:40.357
154.0, 7118.337704937185, 0.0, 0.0, 0.0, 0.0, 0.0, 0.0, 0.0, 0.098, -0.036000000000000004, 0.988, 192.0, 0.0, 0.0, 0.0, 0.0, 0.0, 0.0, 0.0, 0.0, 0.0, 1.7151634003571897E9, 0.0, 2024-05-08 13:16:40.357
155.0, 7863.813086010586, 0.0, 0.0, 0.0, 0.0, 0.0, 0.0, 0.0, 0.098, -0.036000000000000004, 0.988, 192.0, 0.0, 0.0, 0.0, 0.0, 0.0, 0.0, 0.0, 0.0, 0.0, 1.7151634003572068E9, 0.0, 2024-05-08 13:16:40.357
156.0, 7373.259350449962, 0.0, 0.0, 0.0, 0.0, 0.0, 0.0, 0.0, 0.098, -0.036000000000000004, 0.988, 192.0, 0.0, 0.0, 0.0, 0.0, 0.0, 0.0, 0.0, 0.0, 0.0, 1.7151634003572288E9, 0.0, 2024-05-08 13:16:40.357
157.0, 6319.4416546156, 0.0, 0.0, 0.0, 0.0, 0.0, 0.0, 0.0, 0.096, -0.038, 0.99, 192.0, 3.0, 0.0, 254.0, 208.0, 30.0, 240.0, 0.0, 0.0, 0.0, 1.7151634003572469E9, 0.0, 2024-05-08 13:16:40.357
158.0, 6098.852288586175, 0.0, 0.0, 0.0, 0.0, 0.0, 0.0, 0.0, 0.096, -0.038, 0.99, 192.0, 0.0, 0.0, 0.0, 0.0, 0.0, 0.0, 0.0, 0.0, 0.0, 1.7151634003572636E9, 0.0, 2024-05-08 13:16:40.357
159.0, 7004.835546593135, 0.0, 0.0, 0.0, 0.0, 0.0, 0.0, 0.0, 0.096, -0.038, 0.99, 192.0, 0.0, 0.0, 0.0, 0.0, 0.0, 0.0, 0.0, 0.0, 0.0, 1.7151634003572776E9, 0.0, 2024-05-08 13:16:40.357
160.0, 7799.909448612863, 0.0, 0.0, 0.0, 0.0, 0.0, 0.0, 0.0, 0.096, -0.038, 0.99, 192.0, 0.0, 0.0, 0.0, 0.0, 0.0, 0.0, 0.0, 0.0, 0.0, 1.7151634003572931E9, 0.0, 2024-05-08 13:16:40.357
161.0, 7385.038719777909, 0.0, 0.0, 0.0, 0.0, 0.0, 0.0, 0.0, 0.096, -0.038, 0.99, 192.0, 0.0, 0.0, 0.0, 0.0, 0.0, 0.0, 0.0, 0.0, 0.0, 1.7151634003573072E9, 0.0, 2024-05-08 13:16:40.357
162.0, 6326.080122718826, 0.0, 0.0, 0.0, 0.0, 0.0, 0.0, 0.0, 0.096, -0.038, 0.99, 192.0, 0.0, 0.0, 0.0, 0.0, 0.0, 0.0, 0.0, 0.0, 0.0, 1.7151634003573208E9, 0.0, 2024-05-08 13:16:40.357
163.0, 6126.859024388675, 0.0, 0.0, 0.0, 0.0, 0.0, 0.0, 0.0, 0.096, -0.038, 0.99, 192.0, 0.0, 0.0, 0.0, 0.0, 0.0, 0.0, 0.0, 0.0, 0.0, 1.7151634003573349E9, 0.0, 2024-05-08 13:16:40.357
164.0, 7054.724640217381, 0.0, 0.0, 0.0, 0.0, 0.0, 0.0, 0.0, 0.096, -0.038, 0.99, 192.0, 0.0, 0.0, 0.0, 0.0, 0.0, 0.0, 0.0, 0.0, 0.0, 1.7151634003573675E9, 0.0, 2024-05-08 13:16:40.357
165.0, 7837.9968211647065, 0.0, 0.0, 0.0, 0.0, 0.0, 0.0, 0.0, 0.096, -0.038, 0.99, 192.0, 0.0, 0.0, 0.0, 0.0, 0.0, 0.0, 0.0, 0.0, 0.0, 1.715163400357381E9, 0.0, 2024-05-08 13:16:40.357
166.0, 7400.126147285241, 0.0, 0.0, 0.0, 0.0, 0.0, 0.0, 0.0, 0.096, -0.038, 0.99, 192.0, 0.0, 0.0, 0.0, 0.0, 0.0, 0.0, 0.0, 0.0, 0.0, 1.7151634003573956E9, 0.0, 2024-05-08 13:16:40.357
167.0, 6326.191881441103, 0.0, 0.0, 0.0, 0.0, 0.0, 0.0, 0.0, 0.09, -0.038, 0.99, 192.0, 2.0, 208.0, 254.0, 208.0, 30.0, 240.0, 0.0, 0.0, 0.0, 1.7151634003574097E9, 0.0, 2024-05-08 13:16:40.357
168.0, 6065.8834655145965, 0.0, 0.0, 0.0, 0.0, 0.0, 0.0, 0.0, 0.09, -0.038, 0.99, 192.0, 0.0, 0.0, 0.0, 0.0, 0.0, 0.0, 0.0, 0.0, 0.0, 1.7151634003574255E9, 0.0, 2024-05-08 13:16:40.357
169.0, 6935.99217367079, 0.0, 0.0, 0.0, 0.0, 0.0, 0.0, 0.0, 0.09, -0.038, 0.99, 192.0, 0.0, 0.0, 0.0, 0.0, 0.0, 0.0, 0.0, 0.0, 0.0, 1.7151634003574405E9, 0.0, 2024-05-08 13:16:40.357
170.0, 7704.445148044247, 0.0, 0.0, 0.0, 0.0, 0.0, 0.0, 0.0, 0.09, -0.038, 0.99, 192.0, 0.0, 0.0, 0.0, 0.0, 0.0, 0.0, 0.0, 0.0, 0.0, 1.7151634003574555E9, 0.0, 2024-05-08 13:16:40.357
171.0, 7260.584206650759, 0.0, 0.0, 0.0, 0.0, 0.0, 0.0, 0.0, 0.09, -0.038, 0.99, 192.0, 0.0, 0.0, 0.0, 0.0, 0.0, 0.0, 0.0, 0.0, 0.0, 1.715163400357476E9, 0.0, 2024-05-08 13:16:40.357
172.0, 6206.632400349665, 0.0, 0.0, 0.0, 0.0, 0.0, 0.0, 0.0, 0.09, -0.038, 0.99, 192.0, 0.0, 0.0, 0.0, 0.0, 0.0, 0.0, 0.0, 0.0, 0.0, 1.7151634003574936E9, 0.0, 2024-05-08 13:16:40.357
173.0, 5935.014001728774, 0.0, 0.0, 0.0, 0.0, 0.0, 0.0, 0.0, 0.09, -0.038, 0.99, 192.0, 0.0, 0.0, 0.0, 0.0, 0.0, 0.0, 0.0, 0.0, 0.0, 1.7151634003575108E9, 0.0, 2024-05-08 13:16:40.357
174.0, 6798.417186548375, 0.0, 0.0, 0.0, 0.0, 0.0, 0.0, 0.0, 0.09, -0.038, 0.99, 192.0, 0.0, 0.0, 0.0, 0.0, 0.0, 0.0, 0.0, 0.0, 0.0, 1.7151634003575292E9, 0.0, 2024-05-08 13:16:40.357
175.0, 7585.7126814976555, 0.0, 0.0, 0.0, 0.0, 0.0, 0.0, 0.0, 0.09, -0.038, 0.99, 192.0, 0.0, 0.0, 0.0, 0.0, 0.0, 0.0, 0.0, 0.0, 0.0, 1.715163400357544E9, 0.0, 2024-05-08 13:16:40.357
176.0, 7189.058624393777, 0.0, 0.0, 0.0, 0.0, 0.0, 0.0, 0.0, 0.09, -0.038, 0.99, 192.0, 0.0, 0.0, 0.0, 0.0, 0.0, 0.0, 0.0, 0.0, 0.0, 1.7151634003575578E9, 0.0, 2024-05-08 13:16:40.357
177.0, 6124.892070876607, 0.0, 0.0, 0.0, 0.0, 0.0, 0.0, 0.0, 0.096, -0.044, 0.99, 192.0, 3.0, 0.0, 254.0, 160.0, 30.0, 240.0, 0.0, 0.0, 0.0, 1.715163400357574E9, 0.0, 2024-05-08 13:16:40.357
178.0, 5859.710974658844, 0.0, 0.0, 0.0, 0.0, 0.0, 0.0, 0.0, 0.096, -0.044, 0.99, 192.0, 0.0, 0.0, 0.0, 0.0, 0.0, 0.0, 0.0, 0.0, 0.0, 1.7151634003575895E9, 0.0, 2024-05-08 13:16:40.357
179.0, 6756.015927316657, 0.0, 0.0, 0.0, 0.0, 0.0, 0.0, 0.0, 0.096, -0.044, 0.99, 192.0, 0.0, 0.0, 0.0, 0.0, 0.0, 0.0, 0.0, 0.0, 0.0, 1.7151634003576033E9, 0.0, 2024-05-08 13:16:40.357
180.0, 7606.41039686327, 0.0, 0.0, 0.0, 0.0, 0.0, 0.0, 0.0, 0.096, -0.044, 0.99, 192.0, 0.0, 0.0, 0.0, 0.0, 0.0, 0.0, 0.0, 0.0, 0.0, 1.715163400357617E9, 0.0, 2024-05-08 13:16:40.357
181.0, 7225.29080215583, 0.0, 0.0, 0.0, 0.0, 0.0, 0.0, 0.0, 0.096, -0.044, 0.99, 192.0, 0.0, 0.0, 0.0, 0.0, 0.0, 0.0, 0.0, 0.0, 0.0, 1.7151634003576305E9, 0.0, 2024-05-08 13:16:40.357
182.0, 6170.154353398604, 0.0, 0.0, 0.0, 0.0, 0.0, 0.0, 0.0, 0.096, -0.044, 0.99, 192.0, 0.0, 0.0, 0.0, 0.0, 0.0, 0.0, 0.0, 0.0, 0.0, 1.715163400357654E9, 0.0, 2024-05-08 13:16:40.357
183.0, 5933.181158683438, 0.0, 0.0, 0.0, 0.0, 0.0, 0.0, 0.0, 0.096, -0.044, 0.99, 192.0, 0.0, 0.0, 0.0, 0.0, 0.0, 0.0, 0.0, 0.0, 0.0, 1.715163400357668E9, 0.0, 2024-05-08 13:16:40.357
184.0, 6860.711498345316, 0.0, 0.0, 0.0, 0.0, 0.0, 0.0, 0.0, 0.096, -0.044, 0.99, 192.0, 0.0, 0.0, 0.0, 0.0, 0.0, 0.0, 0.0, 0.0, 0.0, 1.7151634003576837E9, 0.0, 2024-05-08 13:16:40.357
185.0, 7710.748339980643, 0.0, 0.0, 0.0, 0.0, 0.0, 0.0, 0.0, 0.096, -0.044, 0.99, 192.0, 0.0, 0.0, 0.0, 0.0, 0.0, 0.0, 0.0, 0.0, 0.0, 1.7151634003576975E9, 0.0, 2024-05-08 13:16:40.357
186.0, 7333.272079619418, 0.0, 0.0, 0.0, 0.0, 0.0, 0.0, 0.0, 0.096, -0.044, 0.99, 192.0, 0.0, 0.0, 0.0, 0.0, 0.0, 0.0, 0.0, 0.0, 0.0, 1.7151634003577113E9, 0.0, 2024-05-08 13:16:40.357
187.0, 6297.000503182471, 0.0, 0.0, 0.0, 0.0, 0.0, 0.0, 0.0, 0.088, -0.046, 0.988, 192.0, 2.0, 192.0, 254.0, 144.0, 30.0, 224.0, 0.0, 0.0, 0.0, 1.7151634003577251E9, 0.0, 2024-05-08 13:16:40.357
188.0, 6102.763843865853, 0.0, 0.0, 0.0, 0.0, 0.0, 0.0, 0.0, 0.088, -0.046, 0.988, 192.0, 0.0, 0.0, 0.0, 0.0, 0.0, 0.0, 0.0, 0.0, 0.0, 1.7151634003577397E9, 0.0, 2024-05-08 13:16:40.357
189.0, 7014.178575775454, 0.0, 0.0, 0.0, 0.0, 0.0, 0.0, 0.0, 0.088, -0.046, 0.988, 192.0, 0.0, 0.0, 0.0, 0.0, 0.0, 0.0, 0.0, 0.0, 0.0, 1.7151634003577547E9, 0.0, 2024-05-08 13:16:40.357
190.0, 7900.1570224949155, 0.0, 0.0, 0.0, 0.0, 0.0, 0.0, 0.0, 0.088, -0.046, 0.988, 192.0, 0.0, 0.0, 0.0, 0.0, 0.0, 0.0, 0.0, 0.0, 0.0, 1.7151634003577704E9, 0.0, 2024-05-08 13:16:40.357
191.0, 7577.442536049192, 0.0, 0.0, 0.0, 0.0, 0.0, 0.0, 0.0, 0.088, -0.046, 0.988, 192.0, 0.0, 0.0, 0.0, 0.0, 0.0, 0.0, 0.0, 0.0, 0.0, 1.7151634003577871E9, 0.0, 2024-05-08 13:16:40.357
192.0, 6539.785151456017, 0.0, 0.0, 0.0, 0.0, 0.0, 0.0, 0.0, 0.088, -0.046, 0.988, 192.0, 0.0, 0.0, 0.0, 0.0, 0.0, 0.0, 0.0, 0.0, 0.0, 1.715163400357802E9, 0.0, 2024-05-08 13:16:40.357
193.0, 6274.134668604693, 0.0, 0.0, 0.0, 0.0, 0.0, 0.0, 0.0, 0.088, -0.046, 0.988, 192.0, 0.0, 0.0, 0.0, 0.0, 0.0, 0.0, 0.0, 0.0, 0.0, 1.715163400357816E9, 0.0, 2024-05-08 13:16:40.357
194.0, 7183.984778402421, 0.0, 0.0, 0.0, 0.0, 0.0, 0.0, 0.0, 0.088, -0.046, 0.988, 192.0, 0.0, 0.0, 0.0, 0.0, 0.0, 0.0, 0.0, 0.0, 0.0, 1.71516340035783E9, 0.0, 2024-05-08 13:16:40.357
195.0, 8046.985631821827, 0.0, 0.0, 0.0, 0.0, 0.0, 0.0, 0.0, 0.088, -0.046, 0.988, 192.0, 0.0, 0.0, 0.0, 0.0, 0.0, 0.0, 0.0, 0.0, 0.0, 1.7151634003578436E9, 0.0, 2024-05-08 13:16:40.357
196.0, 7731.602517557445, 0.0, 0.0, 0.0, 0.0, 0.0, 0.0, 0.0, 0.088, -0.046, 0.988, 192.0, 0.0, 0.0, 0.0, 0.0, 0.0, 0.0, 0.0, 0.0, 0.0, 1.7151634003578577E9, 0.0, 2024-05-08 13:16:40.357
197.0, 6686.3902433383755, 0.0, 0.0, 0.0, 0.0, 0.0, 0.0, 0.0, 0.092, -0.044, 0.988, 192.0, 2.0, 224.0, 254.0, 160.0, 30.0, 224.0, 0.0, 0.0, 0.0, 1.7151634003578732E9, 0.0, 2024-05-08 13:16:40.357
198.0, 6401.852536422317, 0.0, 0.0, 0.0, 0.0, 0.0, 0.0, 0.0, 0.092, -0.044, 0.988, 192.0, 0.0, 0.0, 0.0, 0.0, 0.0, 0.0, 0.0, 0.0, 0.0, 1.7151634003578875E9, 0.0, 2024-05-08 13:16:40.357
199.0, 7319.279887590395, 0.0, 0.0, 0.0, 0.0, 0.0, 0.0, 0.0, 0.092, -0.044, 0.988, 192.0, 0.0, 0.0, 0.0, 0.0, 0.0, 0.0, 0.0, 0.0, 0.0, 1.7151634003579097E9, 0.0, 2024-05-08 13:16:40.357
200.0, 8159.303147709746, 0.0, 0.0, 0.0, 0.0, 0.0, 0.0, 0.0, 0.092, -0.044, 0.988, 192.0, 0.0, 0.0, 0.0, 0.0, 0.0, 0.0, 0.0, 0.0, 0.0, 1.7151634003579235E9, 0.0, 2024-05-08 13:16:40.357
201.0, 7856.437010340334, 0.0, 0.0, 0.0, 0.0, 0.0, 0.0, 0.0, 0.092, -0.044, 0.988, 192.0, 0.0, 0.0, 0.0, 0.0, 0.0, 0.0, 0.0, 0.0, 0.0, 1.715163400357937E9, 0.0, 2024-05-08 13:16:40.357
202.0, 6819.360771102998, 0.0, 0.0, 0.0, 0.0, 0.0, 0.0, 0.0, 0.092, -0.044, 0.988, 192.0, 0.0, 0.0, 0.0, 0.0, 0.0, 0.0, 0.0, 0.0, 0.0, 1.7151634003579512E9, 0.0, 2024-05-08 13:16:40.357
203.0, 6540.098075878392, 0.0, 0.0, 0.0, 0.0, 0.0, 0.0, 0.0, 0.092, -0.044, 0.988, 192.0, 0.0, 0.0, 0.0, 0.0, 0.0, 0.0, 0.0, 0.0, 0.0, 1.7151634003579648E9, 0.0, 2024-05-08 13:16:40.357
204.0, 7429.026952865953, 0.0, 0.0, 0.0, 0.0, 0.0, 0.0, 0.0, 0.092, -0.044, 0.988, 192.0, 0.0, 0.0, 0.0, 0.0, 0.0, 0.0, 0.0, 0.0, 0.0, 1.7151634003579848E9, 0.0, 2024-05-08 13:16:40.357
205.0, 8297.54868716582, 0.0, 0.0, 0.0, 0.0, 0.0, 0.0, 0.0, 0.092, -0.044, 0.988, 192.0, 0.0, 0.0, 0.0, 0.0, 0.0, 0.0, 0.0, 0.0, 0.0, 1.7151634003580017E9, 0.0, 2024-05-08 13:16:40.358
206.0, 7998.817622520641, 0.0, 0.0, 0.0, 0.0, 0.0, 0.0, 0.0, 0.092, -0.044, 0.988, 192.0, 0.0, 0.0, 0.0, 0.0, 0.0, 0.0, 0.0, 0.0, 0.0, 1.7151634003580153E9, 0.0, 2024-05-08 13:16:40.358
207.0, 6954.320604124142, 0.0, 0.0, 0.0, 0.0, 0.0, 0.0, 0.0, 0.092, -0.048, 0.984, 192.0, 2.0, 224.0, 254.0, 128.0, 30.0, 192.0, 0.0, 0.0, 0.0, 1.7151634003580427E9, 0.0, 2024-05-08 13:16:40.358
208.0, 6670.8334291974825, 0.0, 0.0, 0.0, 0.0, 0.0, 0.0, 0.0, 0.092, -0.048, 0.984, 192.0, 0.0, 0.0, 0.0, 0.0, 0.0, 0.0, 0.0, 0.0, 0.0, 1.7151634003580575E9, 0.0, 2024-05-08 13:16:40.358
209.0, 7546.597128700868, 0.0, 0.0, 0.0, 0.0, 0.0, 0.0, 0.0, 0.092, -0.048, 0.984, 192.0, 0.0, 0.0, 0.0, 0.0, 0.0, 0.0, 0.0, 0.0, 0.0, 1.715163400358072E9, 0.0, 2024-05-08 13:16:40.358
210.0, 8393.549429601364, 0.0, 0.0, 0.0, 0.0, 0.0, 0.0, 0.0, 0.092, -0.048, 0.984, 192.0, 0.0, 0.0, 0.0, 0.0, 0.0, 0.0, 0.0, 0.0, 0.0, 1.7151634003580873E9, 0.0, 2024-05-08 13:16:40.358
211.0, 8072.243103056325, 0.0, 0.0, 0.0, 0.0, 0.0, 0.0, 0.0, 0.092, -0.048, 0.984, 192.0, 0.0, 0.0, 0.0, 0.0, 0.0, 0.0, 0.0, 0.0, 0.0, 1.7151634003581011E9, 0.0, 2024-05-08 13:16:40.358
212.0, 7021.53229970125, 0.0, 0.0, 0.0, 0.0, 0.0, 0.0, 0.0, 0.092, -0.048, 0.984, 192.0, 0.0, 0.0, 0.0, 0.0, 0.0, 0.0, 0.0, 0.0, 0.0, 1.7151634003581147E9, 0.0, 2024-05-08 13:16:40.358
213.0, 6672.576865264996, 0.0, 0.0, 0.0, 0.0, 0.0, 0.0, 0.0, 0.092, -0.048, 0.984, 192.0, 0.0, 0.0, 0.0, 0.0, 0.0, 0.0, 0.0, 0.0, 0.0, 1.7151634003581288E9, 0.0, 2024-05-08 13:16:40.358
214.0, 7517.606916142335, 0.0, 0.0, 0.0, 0.0, 0.0, 0.0, 0.0, 0.092, -0.048, 0.984, 192.0, 0.0, 0.0, 0.0, 0.0, 0.0, 0.0, 0.0, 0.0, 0.0, 1.715163400358143E9, 0.0, 2024-05-08 13:16:40.358
215.0, 8355.41735356061, 0.0, 0.0, 0.0, 0.0, 0.0, 0.0, 0.0, 0.092, -0.048, 0.984, 192.0, 0.0, 0.0, 0.0, 0.0, 0.0, 0.0, 0.0, 0.0, 0.0, 1.7151634003581567E9, 0.0, 2024-05-08 13:16:40.358
216.0, 8021.147015231492, 0.0, 0.0, 0.0, 0.0, 0.0, 0.0, 0.0, 0.092, -0.048, 0.984, 192.0, 0.0, 0.0, 0.0, 0.0, 0.0, 0.0, 0.0, 0.0, 0.0, 1.7151634003581705E9, 0.0, 2024-05-08 13:16:40.358
217.0, 6951.4148773449515, 0.0, 0.0, 0.0, 0.0, 0.0, 0.0, 0.0, 0.09, -0.046, 0.984, 192.0, 2.0, 208.0, 254.0, 144.0, 30.0, 192.0, 0.0, 0.0, 0.0, 1.7151634003584225E9, 0.0, 2024-05-08 13:16:40.358
218.0, 6631.159082789312, 0.0, 0.0, 0.0, 0.0, 0.0, 0.0, 0.0, 0.09, -0.046, 0.984, 192.0, 0.0, 0.0, 0.0, 0.0, 0.0, 0.0, 0.0, 0.0, 0.0, 1.7151634003584385E9, 0.0, 2024-05-08 13:16:40.358
219.0, 7442.750923961512, 0.0, 0.0, 0.0, 0.0, 0.0, 0.0, 0.0, 0.09, -0.046, 0.984, 192.0, 0.0, 0.0, 0.0, 0.0, 0.0, 0.0, 0.0, 0.0, 0.0, 1.715163400358452E9, 0.0, 2024-05-08 13:16:40.358
220.0, 8264.557512349786, 0.0, 0.0, 0.0, 0.0, 0.0, 0.0, 0.0, 0.09, -0.046, 0.984, 192.0, 0.0, 0.0, 0.0, 0.0, 0.0, 0.0, 0.0, 0.0, 0.0, 1.7151634003584661E9, 0.0, 2024-05-08 13:16:40.358
221.0, 7949.643784718965, 0.0, 0.0, 0.0, 0.0, 0.0, 0.0, 0.0, 0.09, -0.046, 0.984, 192.0, 0.0, 0.0, 0.0, 0.0, 0.0, 0.0, 0.0, 0.0, 0.0, 1.71516340035848E9, 0.0, 2024-05-08 13:16:40.358
222.0, 6856.129390731978, 0.0, 0.0, 0.0, 0.0, 0.0, 0.0, 0.0, 0.09, -0.046, 0.984, 192.0, 0.0, 0.0, 0.0, 0.0, 0.0, 0.0, 0.0, 0.0, 0.0, 1.715163400358494E9, 0.0, 2024-05-08 13:16:40.358
223.0, 6491.460679943643, 0.0, 0.0, 0.0, 0.0, 0.0, 0.0, 0.0, 0.09, -0.046, 0.984, 192.0, 0.0, 0.0, 0.0, 0.0, 0.0, 0.0, 0.0, 0.0, 0.0, 1.7151634003585107E9, 0.0, 2024-05-08 13:16:40.358
224.0, 7303.790128682867, 0.0, 0.0, 0.0, 0.0, 0.0, 0.0, 0.0, 0.09, -0.046, 0.984, 192.0, 0.0, 0.0, 0.0, 0.0, 0.0, 0.0, 0.0, 0.0, 0.0, 1.7151634003585248E9, 0.0, 2024-05-08 13:16:40.358
225.0, 8142.472284134899, 0.0, 0.0, 0.0, 0.0, 0.0, 0.0, 0.0, 0.09, -0.046, 0.984, 192.0, 0.0, 0.0, 0.0, 0.0, 0.0, 0.0, 0.0, 0.0, 0.0, 1.7151634003585389E9, 0.0, 2024-05-08 13:16:40.358
226.0, 7834.889928685418, 0.0, 0.0, 0.0, 0.0, 0.0, 0.0, 0.0, 0.09, -0.046, 0.984, 192.0, 0.0, 0.0, 0.0, 0.0, 0.0, 0.0, 0.0, 0.0, 0.0, 1.7151634003585527E9, 0.0, 2024-05-08 13:16:40.358
227.0, 6746.76230511216, 0.0, 0.0, 0.0, 0.0, 0.0, 0.0, 0.0, 0.08600000000000001, -0.04, 0.984, 192.0, 2.0, 176.0, 254.0, 192.0, 30.0, 192.0, 0.0, 0.0, 0.0, 1.7151634003585668E9, 0.0, 2024-05-08 13:16:40.358
228.0, 6369.353099984301, 0.0, 0.0, 0.0, 0.0, 0.0, 0.0, 0.0, 0.08600000000000001, -0.04, 0.984, 192.0, 0.0, 0.0, 0.0, 0.0, 0.0, 0.0, 0.0, 0.0, 0.0, 1.7151634003585818E9, 0.0, 2024-05-08 13:16:40.358
229.0, 7158.950824612478, 0.0, 0.0, 0.0, 0.0, 0.0, 0.0, 0.0, 0.08600000000000001, -0.04, 0.984, 192.0, 0.0, 0.0, 0.0, 0.0, 0.0, 0.0, 0.0, 0.0, 0.0, 1.715163400358596E9, 0.0, 2024-05-08 13:16:40.358
230.0, 7982.76907000173, 0.0, 0.0, 0.0, 0.0, 0.0, 0.0, 0.0, 0.08600000000000001, -0.04, 0.984, 192.0, 0.0, 0.0, 0.0, 0.0, 0.0, 0.0, 0.0, 0.0, 0.0, 1.7151634003586123E9, 0.0, 2024-05-08 13:16:40.358
231.0, 7712.8494039594425, 0.0, 0.0, 0.0, 0.0, 0.0, 0.0, 0.0, 0.08600000000000001, -0.04, 0.984, 192.0, 0.0, 0.0, 0.0, 0.0, 0.0, 0.0, 0.0, 0.0, 0.0, 1.7151634003586264E9, 0.0, 2024-05-08 13:16:40.358
232.0, 6619.089140783446, 0.0, 0.0, 0.0, 0.0, 0.0, 0.0, 0.0, 0.08600000000000001, -0.04, 0.984, 192.0, 0.0, 0.0, 0.0, 0.0, 0.0, 0.0, 0.0, 0.0, 0.0, 1.7151634003586404E9, 0.0, 2024-05-08 13:16:40.358
233.0, 6232.918051829106, 0.0, 0.0, 0.0, 0.0, 0.0, 0.0, 0.0, 0.08600000000000001, -0.04, 0.984, 192.0, 0.0, 0.0, 0.0, 0.0, 0.0, 0.0, 0.0, 0.0, 0.0, 1.7151634003586545E9, 0.0, 2024-05-08 13:16:40.358
234.0, 7053.383535550062, 0.0, 0.0, 0.0, 0.0, 0.0, 0.0, 0.0, 0.08600000000000001, -0.04, 0.984, 192.0, 0.0, 0.0, 0.0, 0.0, 0.0, 0.0, 0.0, 0.0, 0.0, 1.7151634003586779E9, 0.0, 2024-05-08 13:16:40.358
235.0, 7896.13370849296, 0.0, 0.0, 0.0, 0.0, 0.0, 0.0, 0.0, 0.08600000000000001, -0.04, 0.984, 192.0, 0.0, 0.0, 0.0, 0.0, 0.0, 0.0, 0.0, 0.0, 0.0, 1.7151634003586917E9, 0.0, 2024-05-08 13:16:40.358
236.0, 7645.011859537585, 0.0, 0.0, 0.0, 0.0, 0.0, 0.0, 0.0, 0.08600000000000001, -0.04, 0.984, 192.0, 0.0, 0.0, 0.0, 0.0, 0.0, 0.0, 0.0, 0.0, 0.0, 1.715163400358708E9, 0.0, 2024-05-08 13:16:40.358
237.0, 6614.283515725555, 0.0, 0.0, 0.0, 0.0, 0.0, 0.0, 0.0, 0.088, -0.04, 0.98, 192.0, 2.0, 192.0, 254.0, 192.0, 30.0, 160.0, 0.0, 0.0, 0.0, 1.7151634003587227E9, 0.0, 2024-05-08 13:16:40.358
238.0, 6239.914147843618, 0.0, 0.0, 0.0, 0.0, 0.0, 0.0, 0.0, 0.088, -0.04, 0.98, 192.0, 0.0, 0.0, 0.0, 0.0, 0.0, 0.0, 0.0, 0.0, 0.0, 1.7151634003587377E9, 0.0, 2024-05-08 13:16:40.358
239.0, 7088.431070855984, 0.0, 0.0, 0.0, 0.0, 0.0, 0.0, 0.0, 0.088, -0.04, 0.98, 192.0, 0.0, 0.0, 0.0, 0.0, 0.0, 0.0, 0.0, 0.0, 0.0, 1.715163400358752E9, 0.0, 2024-05-08 13:16:40.358
240.0, 7953.421229531912, 0.0, 0.0, 0.0, 0.0, 0.0, 0.0, 0.0, 0.088, -0.04, 0.98, 192.0, 0.0, 0.0, 0.0, 0.0, 0.0, 0.0, 0.0, 0.0, 0.0, 1.715163400358768E9, 0.0, 2024-05-08 13:16:40.358
241.0, 7722.326543608492, 0.0, 0.0, 0.0, 0.0, 0.0, 0.0, 0.0, 0.088, -0.04, 0.98, 192.0, 0.0, 0.0, 0.0, 0.0, 0.0, 0.0, 0.0, 0.0, 0.0, 1.7151634008364296E9, 0.0, 2024-05-08 13:16:40.836
242.0, 6685.2726561156105, 0.0, 0.0, 0.0, 0.0, 0.0, 0.0, 0.0, 0.088, -0.04, 0.98, 192.0, 0.0, 0.0, 0.0, 0.0, 0.0, 0.0, 0.0, 0.0, 0.0, 1.715163400836515E9, 0.0, 2024-05-08 13:16:40.836
243.0, 6305.874145731229, 0.0, 0.0, 0.0, 0.0, 0.0, 0.0, 0.0, 0.088, -0.04, 0.98, 192.0, 0.0, 0.0, 0.0, 0.0, 0.0, 0.0, 0.0, 0.0, 0.0, 1.715163400836563E9, 0.0, 2024-05-08 13:16:40.836
244.0, 7124.797359084769, 0.0, 0.0, 0.0, 0.0, 0.0, 0.0, 0.0, 0.088, -0.04, 0.98, 192.0, 0.0, 0.0, 0.0, 0.0, 0.0, 0.0, 0.0, 0.0, 0.0, 1.7151634008366053E9, 0.0, 2024-05-08 13:16:40.836
245.0, 8002.662122566953, 0.0, 0.0, 0.0, 0.0, 0.0, 0.0, 0.0, 0.088, -0.04, 0.98, 192.0, 0.0, 0.0, 0.0, 0.0, 0.0, 0.0, 0.0, 0.0, 0.0, 1.7151634008366537E9, 0.0, 2024-05-08 13:16:40.836
246.0, 7767.3206051970255, 0.0, 0.0, 0.0, 0.0, 0.0, 0.0, 0.0, 0.088, -0.04, 0.98, 192.0, 0.0, 0.0, 0.0, 0.0, 0.0, 0.0, 0.0, 0.0, 0.0, 1.7151634008366914E9, 0.0, 2024-05-08 13:16:40.836
247.0, 6712.072397717524, 0.0, 0.0, 0.0, 0.0, 0.0, 0.0, 0.0, 0.092, -0.036000000000000004, 0.982, 192.0, 2.0, 224.0, 254.0, 224.0, 30.0, 176.0, 0.0, 0.0, 0.0, 1.715163400836726E9, 0.0, 2024-05-08 13:16:40.836
248.0, 6315.39598886919, 0.0, 0.0, 0.0, 0.0, 0.0, 0.0, 0.0, 0.092, -0.036000000000000004, 0.982, 192.0, 0.0, 0.0, 0.0, 0.0, 0.0, 0.0, 0.0, 0.0, 0.0, 1.7151634008367496E9, 0.0, 2024-05-08 13:16:40.836
249.0, 7121.556356138749, 0.0, 0.0, 0.0, 0.0, 0.0, 0.0, 0.0, 0.092, -0.036000000000000004, 0.982, 192.0, 0.0, 0.0, 0.0, 0.0, 0.0, 0.0, 0.0, 0.0, 0.0, 1.7151634008367677E9, 0.0, 2024-05-08 13:16:40.836
250.0, 7979.572770544622, 0.0, 0.0, 0.0, 0.0, 0.0, 0.0, 0.0, 0.092, -0.036000000000000004, 0.982, 192.0, 0.0, 0.0, 0.0, 0.0, 0.0, 0.0, 0.0, 0.0, 0.0, 1.7151634008367867E9, 0.0, 2024-05-08 13:16:40.836
251.0, 7774.674329122821, 0.0, 0.0, 0.0, 0.0, 0.0, 0.0, 0.0, 0.092, -0.036000000000000004, 0.982, 192.0, 0.0, 0.0, 0.0, 0.0, 0.0, 0.0, 0.0, 0.0, 0.0, 1.7151634008368044E9, 0.0, 2024-05-08 13:16:40.836
252.0, 6696.4261765988085, 0.0, 0.0, 0.0, 0.0, 0.0, 0.0, 0.0, 0.092, -0.036000000000000004, 0.982, 192.0, 0.0, 0.0, 0.0, 0.0, 0.0, 0.0, 0.0, 0.0, 0.0, 1.7151634008369243E9, 0.0, 2024-05-08 13:16:40.836
253.0, 6283.030662897905, 0.0, 0.0, 0.0, 0.0, 0.0, 0.0, 0.0, 0.092, -0.036000000000000004, 0.982, 192.0, 0.0, 0.0, 0.0, 0.0, 0.0, 0.0, 0.0, 0.0, 0.0, 1.715163400836943E9, 0.0, 2024-05-08 13:16:40.836
254.0, 7079.1998003959425, 0.0, 0.0, 0.0, 0.0, 0.0, 0.0, 0.0, 0.092, -0.036000000000000004, 0.982, 192.0, 0.0, 0.0, 0.0, 0.0, 0.0, 0.0, 0.0, 0.0, 0.0, 1.7151634008369615E9, 0.0, 2024-05-08 13:16:40.836
255.0, 7951.007241130739, 0.0, 0.0, 0.0, 0.0, 0.0, 0.0, 0.0, 0.092, -0.036000000000000004, 0.982, 192.0, 0.0, 0.0, 0.0, 0.0, 0.0, 0.0, 0.0, 0.0, 0.0, 1.71516340083698E9, 0.0, 2024-05-08 13:16:40.836
0.0, 7717.967953439707, 0.0, 0.0, 0.0, 0.0, 0.0, 0.0, 0.0, 0.092, -0.036000000000000004, 0.982, 192.0, 0.0, 0.0, 0.0, 0.0, 0.0, 0.0, 0.0, 0.0, 0.0, 1.7151634008369994E9, 0.0, 2024-05-08 13:16:40.836
1.0, 6627.627507165374, 0.0, 0.0, 0.0, 0.0, 0.0, 0.0, 0.0, 0.094, -0.038, 0.986, 192.0, 2.0, 240.0, 254.0, 208.0, 30.0, 208.0, 0.0, 0.0, 0.0, 1.7151634008370173E9, 0.0, 2024-05-08 13:16:40.837
2.0, 6198.094033967738, 0.0, 0.0, 0.0, 0.0, 0.0, 0.0, 0.0, 0.094, -0.038, 0.986, 192.0, 0.0, 0.0, 0.0, 0.0, 0.0, 0.0, 0.0, 0.0, 0.0, 1.7151634008370748E9, 0.0, 2024-05-08 13:16:40.837
3.0, 6921.530595008207, 0.0, 0.0, 0.0, 0.0, 0.0, 0.0, 0.0, 0.094, -0.038, 0.986, 192.0, 0.0, 0.0, 0.0, 0.0, 0.0, 0.0, 0.0, 0.0, 0.0, 1.7151634008370934E9, 0.0, 2024-05-08 13:16:40.837
4.0, 7783.838544349497, 0.0, 0.0, 0.0, 0.0, 0.0, 0.0, 0.0, 0.094, -0.038, 0.986, 192.0, 0.0, 0.0, 0.0, 0.0, 0.0, 0.0, 0.0, 0.0, 0.0, 1.7151634008371136E9, 0.0, 2024-05-08 13:16:40.837
5.0, 7581.242332606595, 0.0, 0.0, 0.0, 0.0, 0.0, 0.0, 0.0, 0.094, -0.038, 0.986, 192.0, 0.0, 0.0, 0.0, 0.0, 0.0, 0.0, 0.0, 0.0, 0.0, 1.7151634008371308E9, 0.0, 2024-05-08 13:16:40.837
6.0, 6472.461697156632, 0.0, 0.0, 0.0, 0.0, 0.0, 0.0, 0.0, 0.094, -0.038, 0.986, 192.0, 0.0, 0.0, 0.0, 0.0, 0.0, 0.0, 0.0, 0.0, 0.0, 1.715163400837149E9, 0.0, 2024-05-08 13:16:40.837
7.0, 6018.207194591427, 0.0, 0.0, 0.0, 0.0, 0.0, 0.0, 0.0, 0.094, -0.038, 0.986, 192.0, 0.0, 0.0, 0.0, 0.0, 0.0, 0.0, 0.0, 0.0, 0.0, 1.7151634008371685E9, 0.0, 2024-05-08 13:16:40.837
8.0, 6754.987747071713, 0.0, 0.0, 0.0, 0.0, 0.0, 0.0, 0.0, 0.094, -0.038, 0.986, 192.0, 0.0, 0.0, 0.0, 0.0, 0.0, 0.0, 0.0, 0.0, 0.0, 1.7151634008371854E9, 0.0, 2024-05-08 13:16:40.837
9.0, 7634.506539643591, 0.0, 0.0, 0.0, 0.0, 0.0, 0.0, 0.0, 0.094, -0.038, 0.986, 192.0, 0.0, 0.0, 0.0, 0.0, 0.0, 0.0, 0.0, 0.0, 0.0, 1.7151634008372023E9, 0.0, 2024-05-08 13:16:40.837
10.0, 7413.760711402979, 0.0, 0.0, 0.0, 0.0, 0.0, 0.0, 0.0, 0.094, -0.038, 0.986, 192.0, 0.0, 0.0, 0.0, 0.0, 0.0, 0.0, 0.0, 0.0, 0.0, 1.715163400837221E9, 0.0, 2024-05-08 13:16:40.837
11.0, 6318.234660415013, 0.0, 0.0, 0.0, 0.0, 0.0, 0.0, 0.0, 0.092, -0.036000000000000004, 0.984, 192.0, 2.0, 224.0, 254.0, 224.0, 30.0, 192.0, 0.0, 0.0, 0.0, 1.715163400837238E9, 0.0, 2024-05-08 13:16:40.837
12.0, 5851.306718743649, 0.0, 0.0, 0.0, 0.0, 0.0, 0.0, 0.0, 0.092, -0.036000000000000004, 0.984, 192.0, 0.0, 0.0, 0.0, 0.0, 0.0, 0.0, 0.0, 0.0, 0.0, 1.7151634008372567E9, 0.0, 2024-05-08 13:16:40.837
13.0, 6574.698576295206, 0.0, 0.0, 0.0, 0.0, 0.0, 0.0, 0.0, 0.092, -0.036000000000000004, 0.984, 192.0, 0.0, 0.0, 0.0, 0.0, 0.0, 0.0, 0.0, 0.0, 0.0, 1.7151634008372908E9, 0.0, 2024-05-08 13:16:40.837
14.0, 7457.7489444910225, 0.0, 0.0, 0.0, 0.0, 0.0, 0.0, 0.0, 0.092, -0.036000000000000004, 0.984, 192.0, 0.0, 0.0, 0.0, 0.0, 0.0, 0.0, 0.0, 0.0, 0.0, 1.7151634008373084E9, 0.0, 2024-05-08 13:16:40.837
15.0, 7304.706550205536, 0.0, 0.0, 0.0, 0.0, 0.0, 0.0, 0.0, 0.092, -0.036000000000000004, 0.984, 192.0, 0.0, 0.0, 0.0, 0.0, 0.0, 0.0, 0.0, 0.0, 0.0, 1.715163400837326E9, 0.0, 2024-05-08 13:16:40.837
16.0, 6237.388400720168, 0.0, 0.0, 0.0, 0.0, 0.0, 0.0, 0.0, 0.092, -0.036000000000000004, 0.984, 192.0, 0.0, 0.0, 0.0, 0.0, 0.0, 0.0, 0.0, 0.0, 0.0, 1.7151634008373435E9, 0.0, 2024-05-08 13:16:40.837
17.0, 5790.57702905858, 0.0, 0.0, 0.0, 0.0, 0.0, 0.0, 0.0, 0.092, -0.036000000000000004, 0.984, 192.0, 0.0, 0.0, 0.0, 0.0, 0.0, 0.0, 0.0, 0.0, 0.0, 1.7151634008373628E9, 0.0, 2024-05-08 13:16:40.837
18.0, 6550.022250416548, 0.0, 0.0, 0.0, 0.0, 0.0, 0.0, 0.0, 0.092, -0.036000000000000004, 0.984, 192.0, 0.0, 0.0, 0.0, 0.0, 0.0, 0.0, 0.0, 0.0, 0.0, 1.7151634008373816E9, 0.0, 2024-05-08 13:16:40.837
19.0, 7443.242662339529, 0.0, 0.0, 0.0, 0.0, 0.0, 0.0, 0.0, 0.092, -0.036000000000000004, 0.984, 192.0, 0.0, 0.0, 0.0, 0.0, 0.0, 0.0, 0.0, 0.0, 0.0, 1.7151634008373995E9, 0.0, 2024-05-08 13:16:40.837
20.0, 7298.336303035772, 0.0, 0.0, 0.0, 0.0, 0.0, 0.0, 0.0, 0.092, -0.036000000000000004, 0.984, 192.0, 0.0, 0.0, 0.0, 0.0, 0.0, 0.0, 0.0, 0.0, 0.0, 1.715163400837422E9, 0.0, 2024-05-08 13:16:40.837
21.0, 6248.117238058715, 0.0, 0.0, 0.0, 0.0, 0.0, 0.0, 0.0, 0.096, -0.036000000000000004, 0.982, 192.0, 3.0, 0.0, 254.0, 224.0, 30.0, 176.0, 0.0, 0.0, 0.0, 1.7151634008374398E9, 0.0, 2024-05-08 13:16:40.837
22.0, 5798.6907122958555, 0.0, 0.0, 0.0, 0.0, 0.0, 0.0, 0.0, 0.096, -0.036000000000000004, 0.982, 192.0, 0.0, 0.0, 0.0, 0.0, 0.0, 0.0, 0.0, 0.0, 0.0, 1.7151634008374612E9, 0.0, 2024-05-08 13:16:40.837
23.0, 6576.687881551729, 0.0, 0.0, 0.0, 0.0, 0.0, 0.0, 0.0, 0.096, -0.036000000000000004, 0.982, 192.0, 0.0, 0.0, 0.0, 0.0, 0.0, 0.0, 0.0, 0.0, 0.0, 1.71516340083748E9, 0.0, 2024-05-08 13:16:40.837
24.0, 7511.929573050687, 0.0, 0.0, 0.0, 0.0, 0.0, 0.0, 0.0, 0.096, -0.036000000000000004, 0.982, 192.0, 0.0, 0.0, 0.0, 0.0, 0.0, 0.0, 0.0, 0.0, 0.0, 1.715163400837499E9, 0.0, 2024-05-08 13:16:40.837
25.0, 7415.280630025939, 0.0, 0.0, 0.0, 0.0, 0.0, 0.0, 0.0, 0.096, -0.036000000000000004, 0.982, 192.0, 0.0, 0.0, 0.0, 0.0, 0.0, 0.0, 0.0, 0.0, 0.0, 1.715163400837518E9, 0.0, 2024-05-08 13:16:40.837
26.0, 6355.7408876110185, 0.0, 0.0, 0.0, 0.0, 0.0, 0.0, 0.0, 0.096, -0.036000000000000004, 0.982, 192.0, 0.0, 0.0, 0.0, 0.0, 0.0, 0.0, 0.0, 0.0, 0.0, 1.7151634008375387E9, 0.0, 2024-05-08 13:16:40.837
27.0, 5912.528146806735, 0.0, 0.0, 0.0, 0.0, 0.0, 0.0, 0.0, 0.096, -0.036000000000000004, 0.982, 192.0, 0.0, 0.0, 0.0, 0.0, 0.0, 0.0, 0.0, 0.0, 0.0, 1.7151634008375556E9, 0.0, 2024-05-08 13:16:40.837
28.0, 6654.114324344912, 0.0, 0.0, 0.0, 0.0, 0.0, 0.0, 0.0, 0.096, -0.036000000000000004, 0.982, 192.0, 0.0, 0.0, 0.0, 0.0, 0.0, 0.0, 0.0, 0.0, 0.0, 1.715163400837573E9, 0.0, 2024-05-08 13:16:40.837
29.0, 7556.096620094374, 0.0, 0.0, 0.0, 0.0, 0.0, 0.0, 0.0, 0.096, -0.036000000000000004, 0.982, 192.0, 0.0, 0.0, 0.0, 0.0, 0.0, 0.0, 0.0, 0.0, 0.0, 1.7151634008375912E9, 0.0, 2024-05-08 13:16:40.837
30.0, 7427.641144709724, 0.0, 0.0, 0.0, 0.0, 0.0, 0.0, 0.0, 0.096, -0.036000000000000004, 0.982, 192.0, 0.0, 0.0, 0.0, 0.0, 0.0, 0.0, 0.0, 0.0, 0.0, 1.7151634008376095E9, 0.0, 2024-05-08 13:16:40.837
31.0, 6350.152951497192, 0.0, 0.0, 0.0, 0.0, 0.0, 0.0, 0.0, 0.092, -0.034, 0.984, 192.0, 2.0, 224.0, 254.0, 240.0, 30.0, 192.0, 0.0, 0.0, 0.0, 1.715163400837642E9, 0.0, 2024-05-08 13:16:40.837
32.0, 5875.334844033104, 0.0, 0.0, 0.0, 0.0, 0.0, 0.0, 0.0, 0.092, -0.034, 0.984, 192.0, 0.0, 0.0, 0.0, 0.0, 0.0, 0.0, 0.0, 0.0, 0.0, 1.7151634008376744E9, 0.0, 2024-05-08 13:16:40.837
33.0, 6604.02406502057, 0.0, 0.0, 0.0, 0.0, 0.0, 0.0, 0.0, 0.092, -0.034, 0.984, 192.0, 0.0, 0.0, 0.0, 0.0, 0.0, 0.0, 0.0, 0.0, 0.0, 1.7151634008376963E9, 0.0, 2024-05-08 13:16:40.837
34.0, 7509.828509071888, 0.0, 0.0, 0.0, 0.0, 0.0, 0.0, 0.0, 0.092, -0.034, 0.984, 192.0, 0.0, 0.0, 0.0, 0.0, 0.0, 0.0, 0.0, 0.0, 0.0, 1.7151634008377144E9, 0.0, 2024-05-08 13:16:40.837
35.0, 7378.22143771904, 0.0, 0.0, 0.0, 0.0, 0.0, 0.0, 0.0, 0.092, -0.034, 0.984, 192.0, 0.0, 0.0, 0.0, 0.0, 0.0, 0.0, 0.0, 0.0, 0.0, 1.7151634008377328E9, 0.0, 2024-05-08 13:16:40.837
36.0, 6350.711745108574, 0.0, 0.0, 0.0, 0.0, 0.0, 0.0, 0.0, 0.092, -0.034, 0.984, 192.0, 0.0, 0.0, 0.0, 0.0, 0.0, 0.0, 0.0, 0.0, 0.0, 1.715163400837751E9, 0.0, 2024-05-08 13:16:40.837
37.0, 5888.187097094906, 0.0, 0.0, 0.0, 0.0, 0.0, 0.0, 0.0, 0.092, -0.034, 0.984, 192.0, 0.0, 0.0, 0.0, 0.0, 0.0, 0.0, 0.0, 0.0, 0.0, 1.7151634008377688E9, 0.0, 2024-05-08 13:16:40.837
38.0, 6638.713972415206, 0.0, 0.0, 0.0, 0.0, 0.0, 0.0, 0.0, 0.092, -0.034, 0.984, 192.0, 0.0, 0.0, 0.0, 0.0, 0.0, 0.0, 0.0, 0.0, 0.0, 1.715163400837787E9, 0.0, 2024-05-08 13:16:40.837
39.0, 7582.40462331827, 0.0, 0.0, 0.0, 0.0, 0.0, 0.0, 0.0, 0.092, -0.034, 0.984, 192.0, 0.0, 0.0, 0.0, 0.0, 0.0, 0.0, 0.0, 0.0, 0.0, 1.7151634008378067E9, 0.0, 2024-05-08 13:16:40.837
40.0, 7503.681779346679, 0.0, 0.0, 0.0, 0.0, 0.0, 0.0, 0.0, 0.092, -0.034, 0.984, 192.0, 0.0, 0.0, 0.0, 0.0, 0.0, 0.0, 0.0, 0.0, 0.0, 1.7151634008378253E9, 0.0, 2024-05-08 13:16:40.837
41.0, 6449.70762130113, 0.0, 0.0, 0.0, 0.0, 0.0, 0.0, 0.0, 0.09, -0.034, 0.99, 192.0, 2.0, 208.0, 254.0, 240.0, 30.0, 240.0, 0.0, 0.0, 0.0, 1.7151634008378437E9, 0.0, 2024-05-08 13:16:40.837
42.0, 5925.872138246553, 0.0, 0.0, 0.0, 0.0, 0.0, 0.0, 0.0, 0.09, -0.034, 0.99, 192.0, 0.0, 0.0, 0.0, 0.0, 0.0, 0.0, 0.0, 0.0, 0.0, 1.715163400837926E9, 0.0, 2024-05-08 13:16:40.837
43.0, 6663.74792620515, 0.0, 0.0, 0.0, 0.0, 0.0, 0.0, 0.0, 0.09, -0.034, 0.99, 192.0, 0.0, 0.0, 0.0, 0.0, 0.0, 0.0, 0.0, 0.0, 0.0, 1.7151634008379457E9, 0.0, 2024-05-08 13:16:40.837
44.0, 7610.456062609681, 0.0, 0.0, 0.0, 0.0, 0.0, 0.0, 0.0, 0.09, -0.034, 0.99, 192.0, 0.0, 0.0, 0.0, 0.0, 0.0, 0.0, 0.0, 0.0, 0.0, 1.7151634008379653E9, 0.0, 2024-05-08 13:16:40.837
45.0, 7513.516546907013, 0.0, 0.0, 0.0, 0.0, 0.0, 0.0, 0.0, 0.09, -0.034, 0.99, 192.0, 0.0, 0.0, 0.0, 0.0, 0.0, 0.0, 0.0, 0.0, 0.0, 1.7151634008379836E9, 0.0, 2024-05-08 13:16:40.837
46.0, 6436.60949905032, 0.0, 0.0, 0.0, 0.0, 0.0, 0.0, 0.0, 0.09, -0.034, 0.99, 192.0, 0.0, 0.0, 0.0, 0.0, 0.0, 0.0, 0.0, 0.0, 0.0, 1.7151634008380044E9, 0.0, 2024-05-08 13:16:40.838
47.0, 5903.721559491344, 0.0, 0.0, 0.0, 0.0, 0.0, 0.0, 0.0, 0.09, -0.034, 0.99, 192.0, 0.0, 0.0, 0.0, 0.0, 0.0, 0.0, 0.0, 0.0, 0.0, 1.7151634008380492E9, 0.0, 2024-05-08 13:16:40.838
48.0, 6577.11256469638, 0.0, 0.0, 0.0, 0.0, 0.0, 0.0, 0.0, 0.09, -0.034, 0.99, 192.0, 0.0, 0.0, 0.0, 0.0, 0.0, 0.0, 0.0, 0.0, 0.0, 1.715163400838084E9, 0.0, 2024-05-08 13:16:40.838
49.0, 7503.100633990841, 0.0, 0.0, 0.0, 0.0, 0.0, 0.0, 0.0, 0.09, -0.034, 0.99, 192.0, 0.0, 0.0, 0.0, 0.0, 0.0, 0.0, 0.0, 0.0, 0.0, 1.715163400838106E9, 0.0, 2024-05-08 13:16:40.838
50.0, 7403.076577553342, 0.0, 0.0, 0.0, 0.0, 0.0, 0.0, 0.0, 0.09, -0.034, 0.99, 192.0, 0.0, 0.0, 0.0, 0.0, 0.0, 0.0, 0.0, 0.0, 0.0, 1.7151634008381257E9, 0.0, 2024-05-08 13:16:40.838
51.0, 6304.175413152625, 0.0, 0.0, 0.0, 0.0, 0.0, 0.0, 0.0, 0.092, -0.038, 0.988, 192.0, 2.0, 224.0, 254.0, 208.0, 30.0, 224.0, 0.0, 0.0, 0.0, 1.7151634008381455E9, 0.0, 2024-05-08 13:16:40.838
52.0, 5779.915246953398, 0.0, 0.0, 0.0, 0.0, 0.0, 0.0, 0.0, 0.092, -0.038, 0.988, 192.0, 0.0, 0.0, 0.0, 0.0, 0.0, 0.0, 0.0, 0.0, 0.0, 1.7151634008381658E9, 0.0, 2024-05-08 13:16:40.838
53.0, 6478.85429607085, 0.0, 0.0, 0.0, 0.0, 0.0, 0.0, 0.0, 0.092, -0.038, 0.988, 192.0, 0.0, 0.0, 0.0, 0.0, 0.0, 0.0, 0.0, 0.0, 0.0, 1.7151634008381882E9, 0.0, 2024-05-08 13:16:40.838
54.0, 7382.960007543566, 0.0, 0.0, 0.0, 0.0, 0.0, 0.0, 0.0, 0.092, -0.038, 0.988, 192.0, 0.0, 0.0, 0.0, 0.0, 0.0, 0.0, 0.0, 0.0, 0.0, 1.7151634008382096E9, 0.0, 2024-05-08 13:16:40.838
55.0, 7291.094337832254, 0.0, 0.0, 0.0, 0.0, 0.0, 0.0, 0.0, 0.092, -0.038, 0.988, 192.0, 0.0, 0.0, 0.0, 0.0, 0.0, 0.0, 0.0, 0.0, 0.0, 1.7151634008382308E9, 0.0, 2024-05-08 13:16:40.838
56.0, 6217.808272577318, 0.0, 0.0, 0.0, 0.0, 0.0, 0.0, 0.0, 0.092, -0.038, 0.988, 192.0, 0.0, 0.0, 0.0, 0.0, 0.0, 0.0, 0.0, 0.0, 0.0, 1.7151634008382523E9, 0.0, 2024-05-08 13:16:40.838
57.0, 5693.45869940027, 0.0, 0.0, 0.0, 0.0, 0.0, 0.0, 0.0, 0.092, -0.038, 0.988, 192.0, 0.0, 0.0, 0.0, 0.0, 0.0, 0.0, 0.0, 0.0, 0.0, 1.7151634008382738E9, 0.0, 2024-05-08 13:16:40.838
58.0, 6363.295777236913, 0.0, 0.0, 0.0, 0.0, 0.0, 0.0, 0.0, 0.092, -0.038, 0.988, 192.0, 0.0, 0.0, 0.0, 0.0, 0.0, 0.0, 0.0, 0.0, 0.0, 1.715163400838296E9, 0.0, 2024-05-08 13:16:40.838
59.0, 7290.8037651543345, 0.0, 0.0, 0.0, 0.0, 0.0, 0.0, 0.0, 0.092, -0.038, 0.988, 192.0, 0.0, 0.0, 0.0, 0.0, 0.0, 0.0, 0.0, 0.0, 0.0, 1.7151634008383188E9, 0.0, 2024-05-08 13:16:40.838
60.0, 7243.328659931262, 0.0, 0.0, 0.0, 0.0, 0.0, 0.0, 0.0, 0.092, -0.038, 0.988, 192.0, 0.0, 0.0, 0.0, 0.0, 0.0, 0.0, 0.0, 0.0, 0.0, 1.71516340083834E9, 0.0, 2024-05-08 13:16:40.838
61.0, 6192.170821687081, 0.0, 0.0, 0.0, 0.0, 0.0, 0.0, 0.0, 0.094, -0.034, 0.99, 192.0, 2.0, 240.0, 254.0, 240.0, 30.0, 240.0, 0.0, 0.0, 0.0, 1.7151634008383615E9, 0.0, 2024-05-08 13:16:40.838
62.0, 5687.3343214195165, 0.0, 0.0, 0.0, 0.0, 0.0, 0.0, 0.0, 0.094, -0.034, 0.99, 192.0, 0.0, 0.0, 0.0, 0.0, 0.0, 0.0, 0.0, 0.0, 0.0, 1.715163400838384E9, 0.0, 2024-05-08 13:16:40.838
63.0, 6400.667893966186, 0.0, 0.0, 0.0, 0.0, 0.0, 0.0, 0.0, 0.094, -0.034, 0.99, 192.0, 0.0, 0.0, 0.0, 0.0, 0.0, 0.0, 0.0, 0.0, 0.0, 1.7151634008384051E9, 0.0, 2024-05-08 13:16:40.838
64.0, 7353.053373462364, 0.0, 0.0, 0.0, 0.0, 0.0, 0.0, 0.0, 0.094, -0.034, 0.99, 192.0, 0.0, 0.0, 0.0, 0.0, 0.0, 0.0, 0.0, 0.0, 0.0, 1.7151634008384268E9, 0.0, 2024-05-08 13:16:40.838
65.0, 7313.803710198845, 0.0, 0.0, 0.0, 0.0, 0.0, 0.0, 0.0, 0.094, -0.034, 0.99, 192.0, 0.0, 0.0, 0.0, 0.0, 0.0, 0.0, 0.0, 0.0, 0.0, 1.715163400838448E9, 0.0, 2024-05-08 13:16:40.838
66.0, 6289.043282156383, 0.0, 0.0, 0.0, 0.0, 0.0, 0.0, 0.0, 0.094, -0.034, 0.99, 192.0, 0.0, 0.0, 0.0, 0.0, 0.0, 0.0, 0.0, 0.0, 0.0, 1.7151634008384857E9, 0.0, 2024-05-08 13:16:40.838
67.0, 5795.293247138649, 0.0, 0.0, 0.0, 0.0, 0.0, 0.0, 0.0, 0.094, -0.034, 0.99, 192.0, 0.0, 0.0, 0.0, 0.0, 0.0, 0.0, 0.0, 0.0, 0.0, 1.7151634008385072E9, 0.0, 2024-05-08 13:16:40.838
68.0, 6470.718261089118, 0.0, 0.0, 0.0, 0.0, 0.0, 0.0, 0.0, 0.094, -0.034, 0.99, 192.0, 0.0, 0.0, 0.0, 0.0, 0.0, 0.0, 0.0, 0.0, 0.0, 1.7151634008385284E9, 0.0, 2024-05-08 13:16:40.838
69.0, 7429.317525543872, 0.0, 0.0, 0.0, 0.0, 0.0, 0.0, 0.0, 0.094, -0.034, 0.99, 192.0, 0.0, 0.0, 0.0, 0.0, 0.0, 0.0, 0.0, 0.0, 0.0, 1.7151634008385496E9, 0.0, 2024-05-08 13:16:40.838
70.0, 7398.002731561987, 0.0, 0.0, 0.0, 0.0, 0.0, 0.0, 0.0, 0.094, -0.034, 0.99, 192.0, 0.0, 0.0, 0.0, 0.0, 0.0, 0.0, 0.0, 0.0, 0.0, 1.7151634008385708E9, 0.0, 2024-05-08 13:16:40.838
71.0, 6343.961518283072, 0.0, 0.0, 0.0, 0.0, 0.0, 0.0, 0.0, 0.096, -0.036000000000000004, 0.988, 192.0, 3.0, 0.0, 254.0, 224.0, 30.0, 224.0, 0.0, 0.0, 0.0, 1.715163400838592E9, 0.0, 2024-05-08 13:16:40.838
72.0, 5811.565317102113, 0.0, 0.0, 0.0, 0.0, 0.0, 0.0, 0.0, 0.096, -0.036000000000000004, 0.988, 192.0, 0.0, 0.0, 0.0, 0.0, 0.0, 0.0, 0.0, 0.0, 0.0, 1.715163400838616E9, 0.0, 2024-05-08 13:16:40.838
73.0, 6467.8572377988385, 0.0, 0.0, 0.0, 0.0, 0.0, 0.0, 0.0, 0.096, -0.036000000000000004, 0.988, 192.0, 0.0, 0.0, 0.0, 0.0, 0.0, 0.0, 0.0, 0.0, 0.0, 1.7151634008386374E9, 0.0, 2024-05-08 13:16:40.838
74.0, 7407.926906100143, 0.0, 0.0, 0.0, 0.0, 0.0, 0.0, 0.0, 0.096, -0.036000000000000004, 0.988, 192.0, 0.0, 0.0, 0.0, 0.0, 0.0, 0.0, 0.0, 0.0, 0.0, 1.7151634008386593E9, 0.0, 2024-05-08 13:16:40.838
75.0, 7396.996903061498, 0.0, 0.0, 0.0, 0.0, 0.0, 0.0, 0.0, 0.096, -0.036000000000000004, 0.988, 192.0, 0.0, 0.0, 0.0, 0.0, 0.0, 0.0, 0.0, 0.0, 0.0, 1.7151634008386807E9, 0.0, 2024-05-08 13:16:40.838
76.0, 6343.4474281606, 0.0, 0.0, 0.0, 0.0, 0.0, 0.0, 0.0, 0.096, -0.036000000000000004, 0.988, 192.0, 0.0, 0.0, 0.0, 0.0, 0.0, 0.0, 0.0, 0.0, 0.0, 1.715163400838703E9, 0.0, 2024-05-08 13:16:40.838
77.0, 5789.660607535912, 0.0, 0.0, 0.0, 0.0, 0.0, 0.0, 0.0, 0.096, -0.036000000000000004, 0.988, 192.0, 0.0, 0.0, 0.0, 0.0, 0.0, 0.0, 0.0, 0.0, 0.0, 1.715163400838724E9, 0.0, 2024-05-08 13:16:40.838
78.0, 6438.1517694177355, 0.0, 0.0, 0.0, 0.0, 0.0, 0.0, 0.0, 0.096, -0.036000000000000004, 0.988, 192.0, 0.0, 0.0, 0.0, 0.0, 0.0, 0.0, 0.0, 0.0, 0.0, 1.715163400838745E9, 0.0, 2024-05-08 13:16:40.838
79.0, 7419.572164961358, 0.0, 0.0, 0.0, 0.0, 0.0, 0.0, 0.0, 0.096, -0.036000000000000004, 0.988, 192.0, 0.0, 0.0, 0.0, 0.0, 0.0, 0.0, 0.0, 0.0, 0.0, 1.7151634008387685E9, 0.0, 2024-05-08 13:16:40.838
80.0, 7441.745095461023, 0.0, 0.0, 0.0, 0.0, 0.0, 0.0, 0.0, 0.096, -0.036000000000000004, 0.988, 192.0, 0.0, 0.0, 0.0, 0.0, 0.0, 0.0, 0.0, 0.0, 0.0, 1.7151634008387897E9, 0.0, 2024-05-08 13:16:40.838
81.0, 6407.999266147526, 0.0, 0.0, 0.0, 0.0, 0.0, 0.0, 0.0, 0.094, -0.042, 0.986, 192.0, 2.0, 240.0, 254.0, 176.0, 30.0, 208.0, 0.0, 0.0, 0.0, 1.715163400838811E9, 0.0, 2024-05-08 13:16:40.838
82.0, 5855.173570534417, 0.0, 0.0, 0.0, 0.0, 0.0, 0.0, 0.0, 0.094, -0.042, 0.986, 192.0, 0.0, 0.0, 0.0, 0.0, 0.0, 0.0, 0.0, 0.0, 0.0, 1.7151634008388336E9, 0.0, 2024-05-08 13:16:40.838
83.0, 6517.612220956353, 0.0, 0.0, 0.0, 0.0, 0.0, 0.0, 0.0, 0.094, -0.042, 0.986, 192.0, 0.0, 0.0, 0.0, 0.0, 0.0, 0.0, 0.0, 0.0, 0.0, 1.7151634008388548E9, 0.0, 2024-05-08 13:16:40.838
84.0, 7507.369817181804, 0.0, 0.0, 0.0, 0.0, 0.0, 0.0, 0.0, 0.094, -0.042, 0.986, 192.0, 0.0, 0.0, 0.0, 0.0, 0.0, 0.0, 0.0, 0.0, 0.0, 1.7151634008388932E9, 0.0, 2024-05-08 13:16:40.838
85.0, 7558.376498028815, 0.0, 0.0, 0.0, 0.0, 0.0, 0.0, 0.0, 0.094, -0.042, 0.986, 192.0, 0.0, 0.0, 0.0, 0.0, 0.0, 0.0, 0.0, 0.0, 0.0, 1.7151634008389163E9, 0.0, 2024-05-08 13:16:40.838
86.0, 6548.9717184271485, 0.0, 0.0, 0.0, 0.0, 0.0, 0.0, 0.0, 0.094, -0.042, 0.986, 192.0, 0.0, 0.0, 0.0, 0.0, 0.0, 0.0, 0.0, 0.0, 0.0, 1.7151634008389375E9, 0.0, 2024-05-08 13:16:40.838
87.0, 5985.6407029200445, 0.0, 0.0, 0.0, 0.0, 0.0, 0.0, 0.0, 0.094, -0.042, 0.986, 192.0, 0.0, 0.0, 0.0, 0.0, 0.0, 0.0, 0.0, 0.0, 0.0, 1.715163400838959E9, 0.0, 2024-05-08 13:16:40.838
88.0, 6673.202714109745, 0.0, 0.0, 0.0, 0.0, 0.0, 0.0, 0.0, 0.094, -0.042, 0.986, 192.0, 0.0, 0.0, 0.0, 0.0, 0.0, 0.0, 0.0, 0.0, 0.0, 1.7151634008389804E9, 0.0, 2024-05-08 13:16:40.838
89.0, 7715.173985382794, 0.0, 0.0, 0.0, 0.0, 0.0, 0.0, 0.0, 0.094, -0.042, 0.986, 192.0, 0.0, 0.0, 0.0, 0.0, 0.0, 0.0, 0.0, 0.0, 0.0, 1.7151634008390017E9, 0.0, 2024-05-08 13:16:40.839
90.0, 7788.0406723070955, 0.0, 0.0, 0.0, 0.0, 0.0, 0.0, 0.0, 0.094, -0.042, 0.986, 192.0, 0.0, 0.0, 0.0, 0.0, 0.0, 0.0, 0.0, 0.0, 0.0, 1.7151634008390992E9, 0.0, 2024-05-08 13:16:40.839
91.0, 6774.947854870303, 0.0, 0.0, 0.0, 0.0, 0.0, 0.0, 0.0, 0.092, -0.036000000000000004, 0.988, 192.0, 2.0, 224.0, 254.0, 224.0, 30.0, 224.0, 0.0, 0.0, 0.0, 1.7151634008391328E9, 0.0, 2024-05-08 13:16:40.839
92.0, 6244.943290346061, 0.0, 0.0, 0.0, 0.0, 0.0, 0.0, 0.0, 0.092, -0.036000000000000004, 0.988, 192.0, 0.0, 0.0, 0.0, 0.0, 0.0, 0.0, 0.0, 0.0, 0.0, 1.7151634008391557E9, 0.0, 2024-05-08 13:16:40.839
93.0, 6889.5452486926615, 0.0, 0.0, 0.0, 0.0, 0.0, 0.0, 0.0, 0.092, -0.036000000000000004, 0.988, 192.0, 0.0, 0.0, 0.0, 0.0, 0.0, 0.0, 0.0, 0.0, 0.0, 1.715163400839174E9, 0.0, 2024-05-08 13:16:40.839
94.0, 7905.543792908645, 0.0, 0.0, 0.0, 0.0, 0.0, 0.0, 0.0, 0.092, -0.036000000000000004, 0.988, 192.0, 0.0, 0.0, 0.0, 0.0, 0.0, 0.0, 0.0, 0.0, 0.0, 1.7151634008391914E9, 0.0, 2024-05-08 13:16:40.839
95.0, 8040.660088140976, 0.0, 0.0, 0.0, 0.0, 0.0, 0.0, 0.0, 0.092, -0.036000000000000004, 0.988, 192.0, 0.0, 0.0, 0.0, 0.0, 0.0, 0.0, 0.0, 0.0, 0.0, 1.7151634008392081E9, 0.0, 2024-05-08 13:16:40.839
96.0, 7027.3661050040855, 0.0, 0.0, 0.0, 0.0, 0.0, 0.0, 0.0, 0.092, -0.036000000000000004, 0.988, 192.0, 0.0, 0.0, 0.0, 0.0, 0.0, 0.0, 0.0, 0.0, 0.0, 1.7151634008392255E9, 0.0, 2024-05-08 13:16:40.839
97.0, 6468.885418043783, 0.0, 0.0, 0.0, 0.0, 0.0, 0.0, 0.0, 0.092, -0.036000000000000004, 0.988, 192.0, 0.0, 0.0, 0.0, 0.0, 0.0, 0.0, 0.0, 0.0, 0.0, 1.7151634008392513E9, 0.0, 2024-05-08 13:16:40.839
98.0, 7112.973286267911, 0.0, 0.0, 0.0, 0.0, 0.0, 0.0, 0.0, 0.092, -0.036000000000000004, 0.988, 192.0, 0.0, 0.0, 0.0, 0.0, 0.0, 0.0, 0.0, 0.0, 0.0, 1.715163400839266E9, 0.0, 2024-05-08 13:16:40.839
99.0, 8103.647304016031, 0.0, 0.0, 0.0, 0.0, 0.0, 0.0, 0.0, 0.092, -0.036000000000000004, 0.988, 192.0, 0.0, 0.0, 0.0, 0.0, 0.0, 0.0, 0.0, 0.0, 0.0, 1.7151634008392816E9, 0.0, 2024-05-08 13:16:40.839
100.0, 8224.525538030332, 0.0, 0.0, 0.0, 0.0, 0.0, 0.0, 0.0, 0.092, -0.036000000000000004, 0.988, 192.0, 0.0, 0.0, 0.0, 0.0, 0.0, 0.0, 0.0, 0.0, 0.0, 1.7151634008392951E9, 0.0, 2024-05-08 13:16:40.839
101.0, 7215.344275873217, 0.0, 0.0, 0.0, 0.0, 0.0, 0.0, 0.0, 0.096, -0.036000000000000004, 0.984, 192.0, 3.0, 0.0, 254.0, 224.0, 30.0, 192.0, 0.0, 0.0, 0.0, 1.7151634008393393E9, 0.0, 2024-05-08 13:16:40.839
102.0, 6646.693545185751, 0.0, 0.0, 0.0, 0.0, 0.0, 0.0, 0.0, 0.096, -0.036000000000000004, 0.984, 192.0, 0.0, 0.0, 0.0, 0.0, 0.0, 0.0, 0.0, 0.0, 0.0, 1.7151634008393545E9, 0.0, 2024-05-08 13:16:40.839
103.0, 7297.576343724292, 0.0, 0.0, 0.0, 0.0, 0.0, 0.0, 0.0, 0.096, -0.036000000000000004, 0.984, 192.0, 0.0, 0.0, 0.0, 0.0, 0.0, 0.0, 0.0, 0.0, 0.0, 1.715163400839368E9, 0.0, 2024-05-08 13:16:40.839
104.0, 8319.162824054101, 0.0, 0.0, 0.0, 0.0, 0.0, 0.0, 0.0, 0.096, -0.036000000000000004, 0.984, 192.0, 0.0, 0.0, 0.0, 0.0, 0.0, 0.0, 0.0, 0.0, 0.0, 1.7151634008393817E9, 0.0, 2024-05-08 13:16:40.839
105.0, 8437.850587111781, 0.0, 0.0, 0.0, 0.0, 0.0, 0.0, 0.0, 0.096, -0.036000000000000004, 0.984, 192.0, 0.0, 0.0, 0.0, 0.0, 0.0, 0.0, 0.0, 0.0, 0.0, 1.7151634013158045E9, 0.0, 2024-05-08 13:16:41.315
106.0, 7464.186246894151, 0.0, 0.0, 0.0, 0.0, 0.0, 0.0, 0.0, 0.096, -0.036000000000000004, 0.984, 192.0, 0.0, 0.0, 0.0, 0.0, 0.0, 0.0, 0.0, 0.0, 0.0, 1.7151634013158743E9, 0.0, 2024-05-08 13:16:41.315
107.0, 6910.578240225106, 0.0, 0.0, 0.0, 0.0, 0.0, 0.0, 0.0, 0.096, -0.036000000000000004, 0.984, 192.0, 0.0, 0.0, 0.0, 0.0, 0.0, 0.0, 0.0, 0.0, 0.0, 1.71516340131591E9, 0.0, 2024-05-08 13:16:41.315
108.0, 7563.137419597795, 0.0, 0.0, 0.0, 0.0, 0.0, 0.0, 0.0, 0.096, -0.036000000000000004, 0.984, 192.0, 0.0, 0.0, 0.0, 0.0, 0.0, 0.0, 0.0, 0.0, 0.0, 1.7151634013159423E9, 0.0, 2024-05-08 13:16:41.315
109.0, 8576.833734134882, 0.0, 0.0, 0.0, 0.0, 0.0, 0.0, 0.0, 0.096, -0.036000000000000004, 0.984, 192.0, 0.0, 0.0, 0.0, 0.0, 0.0, 0.0, 0.0, 0.0, 0.0, 1.7151634013159719E9, 0.0, 2024-05-08 13:16:41.315
110.0, 8716.219212558177, 0.0, 0.0, 0.0, 0.0, 0.0, 0.0, 0.0, 0.096, -0.036000000000000004, 0.984, 192.0, 0.0, 0.0, 0.0, 0.0, 0.0, 0.0, 0.0, 0.0, 0.0, 1.7151634013160038E9, 0.0, 2024-05-08 13:16:41.316
111.0, 7710.591877769456, 0.0, 0.0, 0.0, 0.0, 0.0, 0.0, 0.0, 0.094, -0.04, 0.992, 192.0, 2.0, 240.0, 254.0, 192.0, 31.0, 0.0, 0.0, 0.0, 0.0, 1.715163401316026E9, 0.0, 2024-05-08 13:16:41.316
112.0, 7127.636030630592, 0.0, 0.0, 0.0, 0.0, 0.0, 0.0, 0.0, 0.094, -0.04, 0.992, 192.0, 0.0, 0.0, 0.0, 0.0, 0.0, 0.0, 0.0, 0.0, 0.0, 1.7151634013160484E9, 0.0, 2024-05-08 13:16:41.316
113.0, 7770.762773843143, 0.0, 0.0, 0.0, 0.0, 0.0, 0.0, 0.0, 0.094, -0.04, 0.992, 192.0, 0.0, 0.0, 0.0, 0.0, 0.0, 0.0, 0.0, 0.0, 0.0, 1.715163401316068E9, 0.0, 2024-05-08 13:16:41.316
114.0, 8773.082050452478, 0.0, 0.0, 0.0, 0.0, 0.0, 0.0, 0.0, 0.094, -0.04, 0.992, 192.0, 0.0, 0.0, 0.0, 0.0, 0.0, 0.0, 0.0, 0.0, 0.0, 1.7151634013160875E9, 0.0, 2024-05-08 13:16:41.316
115.0, 8877.79997322559, 0.0, 0.0, 0.0, 0.0, 0.0, 0.0, 0.0, 0.094, -0.04, 0.992, 192.0, 0.0, 0.0, 0.0, 0.0, 0.0, 0.0, 0.0, 0.0, 0.0, 1.715163401316107E9, 0.0, 2024-05-08 13:16:41.316
116.0, 7879.392251895935, 0.0, 0.0, 0.0, 0.0, 0.0, 0.0, 0.0, 0.094, -0.04, 0.992, 192.0, 0.0, 0.0, 0.0, 0.0, 0.0, 0.0, 0.0, 0.0, 0.0, 1.7151634013161256E9, 0.0, 2024-05-08 13:16:41.316
117.0, 7289.216791298008, 0.0, 0.0, 0.0, 0.0, 0.0, 0.0, 0.0, 0.094, -0.04, 0.992, 192.0, 0.0, 0.0, 0.0, 0.0, 0.0, 0.0, 0.0, 0.0, 0.0, 1.7151634013161445E9, 0.0, 2024-05-08 13:16:41.316
118.0, 7888.914095033896, 0.0, 0.0, 0.0, 0.0, 0.0, 0.0, 0.0, 0.094, -0.04, 0.992, 192.0, 0.0, 0.0, 0.0, 0.0, 0.0, 0.0, 0.0, 0.0, 0.0, 1.7151634013161657E9, 0.0, 2024-05-08 13:16:41.316
119.0, 8851.737839190702, 0.0, 0.0, 0.0, 0.0, 0.0, 0.0, 0.0, 0.094, -0.04, 0.992, 192.0, 0.0, 0.0, 0.0, 0.0, 0.0, 0.0, 0.0, 0.0, 0.0, 1.7151634013162563E9, 0.0, 2024-05-08 13:16:41.316
120.0, 9026.461425597838, 0.0, 0.0, 0.0, 0.0, 0.0, 0.0, 0.0, 0.094, -0.04, 0.992, 192.0, 0.0, 0.0, 0.0, 0.0, 0.0, 0.0, 0.0, 0.0, 0.0, 1.715163401316276E9, 0.0, 2024-05-08 13:16:41.316
121.0, 8024.566832133154, 0.0, 0.0, 0.0, 0.0, 0.0, 0.0, 0.0, 0.098, -0.038, 0.986, 192.0, 3.0, 16.0, 254.0, 208.0, 30.0, 208.0, 0.0, 0.0, 0.0, 1.7151634013162944E9, 0.0, 2024-05-08 13:16:41.316
122.0, 7401.780176374934, 0.0, 0.0, 0.0, 0.0, 0.0, 0.0, 0.0, 0.098, -0.038, 0.986, 192.0, 0.0, 0.0, 0.0, 0.0, 0.0, 0.0, 0.0, 0.0, 0.0, 1.7151634013163147E9, 0.0, 2024-05-08 13:16:41.316
123.0, 7962.473686036312, 0.0, 0.0, 0.0, 0.0, 0.0, 0.0, 0.0, 0.098, -0.038, 0.986, 192.0, 0.0, 0.0, 0.0, 0.0, 0.0, 0.0, 0.0, 0.0, 0.0, 1.7151634013163333E9, 0.0, 2024-05-08 13:16:41.316
124.0, 8922.704627836303, 0.0, 0.0, 0.0, 0.0, 0.0, 0.0, 0.0, 0.098, -0.038, 0.986, 192.0, 0.0, 0.0, 0.0, 0.0, 0.0, 0.0, 0.0, 0.0, 0.0, 1.715163401316352E9, 0.0, 2024-05-08 13:16:41.316
125.0, 9037.883167014501, 0.0, 0.0, 0.0, 0.0, 0.0, 0.0, 0.0, 0.098, -0.038, 0.986, 192.0, 0.0, 0.0, 0.0, 0.0, 0.0, 0.0, 0.0, 0.0, 0.0, 1.7151634013163724E9, 0.0, 2024-05-08 13:16:41.316
126.0, 8012.608648849565, 0.0, 0.0, 0.0, 0.0, 0.0, 0.0, 0.0, 0.098, -0.038, 0.986, 192.0, 0.0, 0.0, 0.0, 0.0, 0.0, 0.0, 0.0, 0.0, 0.0, 1.7151634013163908E9, 0.0, 2024-05-08 13:16:41.316
127.0, 7359.401268887672, 0.0, 0.0, 0.0, 0.0, 0.0, 0.0, 0.0, 0.098, -0.038, 0.986, 192.0, 0.0, 0.0, 0.0, 0.0, 0.0, 0.0, 0.0, 0.0, 0.0, 1.7151634013164096E9, 0.0, 2024-05-08 13:16:41.316
128.0, 7898.123013749482, 0.0, 0.0, 0.0, 0.0, 0.0, 0.0, 0.0, 0.098, -0.038, 0.986, 192.0, 0.0, 0.0, 0.0, 0.0, 0.0, 0.0, 0.0, 0.0, 0.0, 1.7151634013164277E9, 0.0, 2024-05-08 13:16:41.316
129.0, 8890.875743731945, 0.0, 0.0, 0.0, 0.0, 0.0, 0.0, 0.0, 0.098, -0.038, 0.986, 192.0, 0.0, 0.0, 0.0, 0.0, 0.0, 0.0, 0.0, 0.0, 0.0, 1.715163401316446E9, 0.0, 2024-05-08 13:16:41.316
130.0, 9008.40121607795, 0.0, 0.0, 0.0, 0.0, 0.0, 0.0, 0.0, 0.098, -0.038, 0.986, 192.0, 0.0, 0.0, 0.0, 0.0, 0.0, 0.0, 0.0, 0.0, 0.0, 1.715163401316466E9, 0.0, 2024-05-08 13:16:41.316
131.0, 7932.164720554915, 0.0, 0.0, 0.0, 0.0, 0.0, 0.0, 0.0, 0.098, -0.04, 0.99, 192.0, 3.0, 16.0, 254.0, 192.0, 30.0, 240.0, 0.0, 0.0, 0.0, 1.7151634013164861E9, 0.0, 2024-05-08 13:16:41.316
132.0, 7279.784355137868, 0.0, 0.0, 0.0, 0.0, 0.0, 0.0, 0.0, 0.098, -0.04, 0.99, 192.0, 0.0, 0.0, 0.0, 0.0, 0.0, 0.0, 0.0, 0.0, 0.0, 1.715163401316507E9, 0.0, 2024-05-08 13:16:41.316
133.0, 7812.560535974567, 0.0, 0.0, 0.0, 0.0, 0.0, 0.0, 0.0, 0.098, -0.04, 0.99, 192.0, 0.0, 0.0, 0.0, 0.0, 0.0, 0.0, 0.0, 0.0, 0.0, 1.7151634013165255E9, 0.0, 2024-05-08 13:16:41.316
134.0, 8795.210277463231, 0.0, 0.0, 0.0, 0.0, 0.0, 0.0, 0.0, 0.098, -0.04, 0.99, 192.0, 0.0, 0.0, 0.0, 0.0, 0.0, 0.0, 0.0, 0.0, 0.0, 1.7151634013165436E9, 0.0, 2024-05-08 13:16:41.316
135.0, 8934.416941930884, 0.0, 0.0, 0.0, 0.0, 0.0, 0.0, 0.0, 0.098, -0.04, 0.99, 192.0, 0.0, 0.0, 0.0, 0.0, 0.0, 0.0, 0.0, 0.0, 0.0, 1.7151634013165617E9, 0.0, 2024-05-08 13:16:41.316
136.0, 7928.007296086228, 0.0, 0.0, 0.0, 0.0, 0.0, 0.0, 0.0, 0.098, -0.04, 0.99, 192.0, 0.0, 0.0, 0.0, 0.0, 0.0, 0.0, 0.0, 0.0, 0.0, 1.7151634013166041E9, 0.0, 2024-05-08 13:16:41.316
137.0, 7273.883494601667, 0.0, 0.0, 0.0, 0.0, 0.0, 0.0, 0.0, 0.098, -0.04, 0.99, 192.0, 0.0, 0.0, 0.0, 0.0, 0.0, 0.0, 0.0, 0.0, 0.0, 1.7151634013166227E9, 0.0, 2024-05-08 13:16:41.316
138.0, 7799.529468957123, 0.0, 0.0, 0.0, 0.0, 0.0, 0.0, 0.0, 0.098, -0.04, 0.99, 192.0, 0.0, 0.0, 0.0, 0.0, 0.0, 0.0, 0.0, 0.0, 0.0, 1.7151634013166437E9, 0.0, 2024-05-08 13:16:41.316
139.0, 8788.482402382184, 0.0, 0.0, 0.0, 0.0, 0.0, 0.0, 0.0, 0.098, -0.04, 0.99, 192.0, 0.0, 0.0, 0.0, 0.0, 0.0, 0.0, 0.0, 0.0, 0.0, 1.715163401316662E9, 0.0, 2024-05-08 13:16:41.316
140.0, 8957.819218375591, 0.0, 0.0, 0.0, 0.0, 0.0, 0.0, 0.0, 0.098, -0.04, 0.99, 192.0, 0.0, 0.0, 0.0, 0.0, 0.0, 0.0, 0.0, 0.0, 0.0, 1.7151634013166804E9, 0.0, 2024-05-08 13:16:41.316
141.0, 7941.172473570404, 0.0, 0.0, 0.0, 0.0, 0.0, 0.0, 0.0, 0.088, -0.034, 0.988, 192.0, 2.0, 192.0, 254.0, 240.0, 30.0, 224.0, 0.0, 0.0, 0.0, 1.7151634013166995E9, 0.0, 2024-05-08 13:16:41.316
142.0, 7326.477149305004, 0.0, 0.0, 0.0, 0.0, 0.0, 0.0, 0.0, 0.088, -0.034, 0.988, 192.0, 0.0, 0.0, 0.0, 0.0, 0.0, 0.0, 0.0, 0.0, 0.0, 1.7151634013167229E9, 0.0, 2024-05-08 13:16:41.316
143.0, 7863.589568566033, 0.0, 0.0, 0.0, 0.0, 0.0, 0.0, 0.0, 0.088, -0.034, 0.988, 192.0, 0.0, 0.0, 0.0, 0.0, 0.0, 0.0, 0.0, 0.0, 0.0, 1.7151634013167412E9, 0.0, 2024-05-08 13:16:41.316
144.0, 8824.736931888692, 0.0, 0.0, 0.0, 0.0, 0.0, 0.0, 0.0, 0.088, -0.034, 0.988, 192.0, 0.0, 0.0, 0.0, 0.0, 0.0, 0.0, 0.0, 0.0, 0.0, 1.715163401316759E9, 0.0, 2024-05-08 13:16:41.316
145.0, 8955.069953807588, 0.0, 0.0, 0.0, 0.0, 0.0, 0.0, 0.0, 0.088, -0.034, 0.988, 192.0, 0.0, 0.0, 0.0, 0.0, 0.0, 0.0, 0.0, 0.0, 0.0, 1.7151634013167796E9, 0.0, 2024-05-08 13:16:41.316
146.0, 7943.675868949398, 0.0, 0.0, 0.0, 0.0, 0.0, 0.0, 0.0, 0.088, -0.034, 0.988, 192.0, 0.0, 0.0, 0.0, 0.0, 0.0, 0.0, 0.0, 0.0, 0.0, 1.7151634013167975E9, 0.0, 2024-05-08 13:16:41.316
147.0, 7306.181765339586, 0.0, 0.0, 0.0, 0.0, 0.0, 0.0, 0.0, 0.088, -0.034, 0.988, 192.0, 0.0, 0.0, 0.0, 0.0, 0.0, 0.0, 0.0, 0.0, 0.0, 1.715163401316816E9, 0.0, 2024-05-08 13:16:41.316
148.0, 7799.484765468213, 0.0, 0.0, 0.0, 0.0, 0.0, 0.0, 0.0, 0.088, -0.034, 0.988, 192.0, 0.0, 0.0, 0.0, 0.0, 0.0, 0.0, 0.0, 0.0, 0.0, 1.7151634013168337E9, 0.0, 2024-05-08 13:16:41.316
149.0, 8801.960504288734, 0.0, 0.0, 0.0, 0.0, 0.0, 0.0, 0.0, 0.088, -0.034, 0.988, 192.0, 0.0, 0.0, 0.0, 0.0, 0.0, 0.0, 0.0, 0.0, 0.0, 1.7151634013168516E9, 0.0, 2024-05-08 13:16:41.316
150.0, 8987.859962923523, 0.0, 0.0, 0.0, 0.0, 0.0, 0.0, 0.0, 0.088, -0.034, 0.988, 192.0, 0.0, 0.0, 0.0, 0.0, 0.0, 0.0, 0.0, 0.0, 0.0, 1.7151634013168705E9, 0.0, 2024-05-08 13:16:41.316
151.0, 7967.726345983308, 0.0, 0.0, 0.0, 0.0, 0.0, 0.0, 0.0, 0.09, -0.04, 0.984, 192.0, 2.0, 208.0, 254.0, 192.0, 30.0, 192.0, 0.0, 0.0, 0.0, 1.7151634013168914E9, 0.0, 2024-05-08 13:16:41.316
152.0, 7303.164279838119, 0.0, 0.0, 0.0, 0.0, 0.0, 0.0, 0.0, 0.09, -0.04, 0.984, 192.0, 0.0, 0.0, 0.0, 0.0, 0.0, 0.0, 0.0, 0.0, 0.0, 1.7151634013169143E9, 0.0, 2024-05-08 13:16:41.316
153.0, 7828.184405348827, 0.0, 0.0, 0.0, 0.0, 0.0, 0.0, 0.0, 0.09, -0.04, 0.984, 192.0, 0.0, 0.0, 0.0, 0.0, 0.0, 0.0, 0.0, 0.0, 0.0, 1.715163401316936E9, 0.0, 2024-05-08 13:16:41.316
154.0, 8855.202359581275, 0.0, 0.0, 0.0, 0.0, 0.0, 0.0, 0.0, 0.09, -0.04, 0.984, 192.0, 0.0, 0.0, 0.0, 0.0, 0.0, 0.0, 0.0, 0.0, 0.0, 1.715163401316978E9, 0.0, 2024-05-08 13:16:41.316
155.0, 9036.676172813914, 0.0, 0.0, 0.0, 0.0, 0.0, 0.0, 0.0, 0.09, -0.04, 0.984, 192.0, 0.0, 0.0, 0.0, 0.0, 0.0, 0.0, 0.0, 0.0, 0.0, 1.7151634013169997E9, 0.0, 2024-05-08 13:16:41.316
156.0, 8024.812701322163, 0.0, 0.0, 0.0, 0.0, 0.0, 0.0, 0.0, 0.09, -0.04, 0.984, 192.0, 0.0, 0.0, 0.0, 0.0, 0.0, 0.0, 0.0, 0.0, 0.0, 1.7151634013170211E9, 0.0, 2024-05-08 13:16:41.317
157.0, 7356.674356064124, 0.0, 0.0, 0.0, 0.0, 0.0, 0.0, 0.0, 0.09, -0.04, 0.984, 192.0, 0.0, 0.0, 0.0, 0.0, 0.0, 0.0, 0.0, 0.0, 0.0, 1.7151634013170428E9, 0.0, 2024-05-08 13:16:41.317
158.0, 7870.943292491829, 0.0, 0.0, 0.0, 0.0, 0.0, 0.0, 0.0, 0.09, -0.04, 0.984, 192.0, 0.0, 0.0, 0.0, 0.0, 0.0, 0.0, 0.0, 0.0, 0.0, 1.715163401317066E9, 0.0, 2024-05-08 13:16:41.317
159.0, 8885.958359951777, 0.0, 0.0, 0.0, 0.0, 0.0, 0.0, 0.0, 0.09, -0.04, 0.984, 192.0, 0.0, 0.0, 0.0, 0.0, 0.0, 0.0, 0.0, 0.0, 0.0, 1.7151634013170877E9, 0.0, 2024-05-08 13:16:41.317
160.0, 9081.42436521344, 0.0, 0.0, 0.0, 0.0, 0.0, 0.0, 0.0, 0.09, -0.04, 0.984, 192.0, 0.0, 0.0, 0.0, 0.0, 0.0, 0.0, 0.0, 0.0, 0.0, 1.7151634013171089E9, 0.0, 2024-05-08 13:16:41.317
161.0, 8082.50255376131, 0.0, 0.0, 0.0, 0.0, 0.0, 0.0, 0.0, 0.092, -0.042, 0.984, 192.0, 2.0, 224.0, 254.0, 176.0, 30.0, 192.0, 0.0, 0.0, 0.0, 1.71516340131713E9, 0.0, 2024-05-08 13:16:41.317
162.0, 7354.707402552057, 0.0, 0.0, 0.0, 0.0, 0.0, 0.0, 0.0, 0.092, -0.042, 0.984, 192.0, 0.0, 0.0, 0.0, 0.0, 0.0, 0.0, 0.0, 0.0, 0.0, 1.7151634013171527E9, 0.0, 2024-05-08 13:16:41.317
163.0, 7800.557649202067, 0.0, 0.0, 0.0, 0.0, 0.0, 0.0, 0.0, 0.092, -0.042, 0.984, 192.0, 0.0, 0.0, 0.0, 0.0, 0.0, 0.0, 0.0, 0.0, 0.0, 1.7151634013171742E9, 0.0, 2024-05-08 13:16:41.317
164.0, 8734.704105222716, 0.0, 0.0, 0.0, 0.0, 0.0, 0.0, 0.0, 0.092, -0.042, 0.984, 192.0, 0.0, 0.0, 0.0, 0.0, 0.0, 0.0, 0.0, 0.0, 0.0, 1.7151634013172393E9, 0.0, 2024-05-08 13:16:41.317
165.0, 8888.126479163942, 0.0, 0.0, 0.0, 0.0, 0.0, 0.0, 0.0, 0.092, -0.042, 0.984, 192.0, 0.0, 0.0, 0.0, 0.0, 0.0, 0.0, 0.0, 0.0, 0.0, 1.7151634013172612E9, 0.0, 2024-05-08 13:16:41.317
166.0, 7818.55080348859, 0.0, 0.0, 0.0, 0.0, 0.0, 0.0, 0.0, 0.092, -0.042, 0.984, 192.0, 0.0, 0.0, 0.0, 0.0, 0.0, 0.0, 0.0, 0.0, 0.0, 1.715163401317283E9, 0.0, 2024-05-08 13:16:41.317
167.0, 7033.15520681801, 0.0, 0.0, 0.0, 0.0, 0.0, 0.0, 0.0, 0.092, -0.042, 0.984, 192.0, 0.0, 0.0, 0.0, 0.0, 0.0, 0.0, 0.0, 0.0, 0.0, 1.7151634013173041E9, 0.0, 2024-05-08 13:16:41.317
168.0, 7471.092935930841, 0.0, 0.0, 0.0, 0.0, 0.0, 0.0, 0.0, 0.092, -0.042, 0.984, 192.0, 0.0, 0.0, 0.0, 0.0, 0.0, 0.0, 0.0, 0.0, 0.0, 1.7151634013173256E9, 0.0, 2024-05-08 13:16:41.317
169.0, 8427.501729428976, 0.0, 0.0, 0.0, 0.0, 0.0, 0.0, 0.0, 0.092, -0.042, 0.984, 192.0, 0.0, 0.0, 0.0, 0.0, 0.0, 0.0, 0.0, 0.0, 0.0, 1.7151634013173473E9, 0.0, 2024-05-08 13:16:41.317
170.0, 8555.443114691152, 0.0, 0.0, 0.0, 0.0, 0.0, 0.0, 0.0, 0.092, -0.042, 0.984, 192.0, 0.0, 0.0, 0.0, 0.0, 0.0, 0.0, 0.0, 0.0, 0.0, 1.7151634013173685E9, 0.0, 2024-05-08 13:16:41.317
171.0, 7517.405750442237, 0.0, 0.0, 0.0, 0.0, 0.0, 0.0, 0.0, 0.098, -0.042, 0.986, 192.0, 3.0, 16.0, 254.0, 176.0, 30.0, 208.0, 0.0, 0.0, 0.0, 1.71516340131741E9, 0.0, 2024-05-08 13:16:41.317
172.0, 6776.356014770987, 0.0, 0.0, 0.0, 0.0, 0.0, 0.0, 0.0, 0.098, -0.042, 0.986, 192.0, 0.0, 0.0, 0.0, 0.0, 0.0, 0.0, 0.0, 0.0, 0.0, 1.715163401317433E9, 0.0, 2024-05-08 13:16:41.317
173.0, 7174.03825211981, 0.0, 0.0, 0.0, 0.0, 0.0, 0.0, 0.0, 0.098, -0.042, 0.986, 192.0, 0.0, 0.0, 0.0, 0.0, 0.0, 0.0, 0.0, 0.0, 0.0, 1.7151634013174546E9, 0.0, 2024-05-08 13:16:41.317
174.0, 8111.291600619746, 0.0, 0.0, 0.0, 0.0, 0.0, 0.0, 0.0, 0.098, -0.042, 0.986, 192.0, 0.0, 0.0, 0.0, 0.0, 0.0, 0.0, 0.0, 0.0, 0.0, 1.715163401317476E9, 0.0, 2024-05-08 13:16:41.317
175.0, 8329.55638522582, 0.0, 0.0, 0.0, 0.0, 0.0, 0.0, 0.0, 0.098, -0.042, 0.986, 192.0, 0.0, 0.0, 0.0, 0.0, 0.0, 0.0, 0.0, 0.0, 0.0, 1.7151634013174973E9, 0.0, 2024-05-08 13:16:41.317
176.0, 7297.129308835186, 0.0, 0.0, 0.0, 0.0, 0.0, 0.0, 0.0, 0.098, -0.042, 0.986, 192.0, 0.0, 0.0, 0.0, 0.0, 0.0, 0.0, 0.0, 0.0, 0.0, 1.7151634013175185E9, 0.0, 2024-05-08 13:16:41.317
177.0, 6565.757878513084, 0.0, 0.0, 0.0, 0.0, 0.0, 0.0, 0.0, 0.098, -0.042, 0.986, 192.0, 0.0, 0.0, 0.0, 0.0, 0.0, 0.0, 0.0, 0.0, 0.0, 1.7151634013175416E9, 0.0, 2024-05-08 13:16:41.317
178.0, 7019.453587466906, 0.0, 0.0, 0.0, 0.0, 0.0, 0.0, 0.0, 0.098, -0.042, 0.986, 192.0, 0.0, 0.0, 0.0, 0.0, 0.0, 0.0, 0.0, 0.0, 0.0, 1.7151634013175628E9, 0.0, 2024-05-08 13:16:41.317
179.0, 7989.049910193671, 0.0, 0.0, 0.0, 0.0, 0.0, 0.0, 0.0, 0.098, -0.042, 0.986, 192.0, 0.0, 0.0, 0.0, 0.0, 0.0, 0.0, 0.0, 0.0, 0.0, 1.7151634013175848E9, 0.0, 2024-05-08 13:16:41.317
180.0, 8178.123316541114, 0.0, 0.0, 0.0, 0.0, 0.0, 0.0, 0.0, 0.098, -0.042, 0.986, 192.0, 0.0, 0.0, 0.0, 0.0, 0.0, 0.0, 0.0, 0.0, 0.0, 1.7151634013176062E9, 0.0, 2024-05-08 13:16:41.317
181.0, 7162.102420580676, 0.0, 0.0, 0.0, 0.0, 0.0, 0.0, 0.0, 0.096, -0.038, 0.99, 192.0, 3.0, 0.0, 254.0, 208.0, 30.0, 240.0, 0.0, 0.0, 0.0, 1.7151634013176277E9, 0.0, 2024-05-08 13:16:41.317
182.0, 6437.637679295263, 0.0, 0.0, 0.0, 0.0, 0.0, 0.0, 0.0, 0.096, -0.038, 0.99, 192.0, 0.0, 0.0, 0.0, 0.0, 0.0, 0.0, 0.0, 0.0, 0.0, 1.71516340131765E9, 0.0, 2024-05-08 13:16:41.317
183.0, 6866.83587632607, 0.0, 0.0, 0.0, 0.0, 0.0, 0.0, 0.0, 0.096, -0.038, 0.99, 192.0, 0.0, 0.0, 0.0, 0.0, 0.0, 0.0, 0.0, 0.0, 0.0, 1.7151634013176713E9, 0.0, 2024-05-08 13:16:41.317
184.0, 7834.26407984067, 0.0, 0.0, 0.0, 0.0, 0.0, 0.0, 0.0, 0.096, -0.038, 0.99, 192.0, 0.0, 0.0, 0.0, 0.0, 0.0, 0.0, 0.0, 0.0, 0.0, 1.7151634013176944E9, 0.0, 2024-05-08 13:16:41.317
185.0, 8072.3772135230565, 0.0, 0.0, 0.0, 0.0, 0.0, 0.0, 0.0, 0.096, -0.038, 0.99, 192.0, 0.0, 0.0, 0.0, 0.0, 0.0, 0.0, 0.0, 0.0, 0.0, 1.715163401317716E9, 0.0, 2024-05-08 13:16:41.317
186.0, 7073.522457304294, 0.0, 0.0, 0.0, 0.0, 0.0, 0.0, 0.0, 0.096, -0.038, 0.99, 192.0, 0.0, 0.0, 0.0, 0.0, 0.0, 0.0, 0.0, 0.0, 0.0, 1.715163401317737E9, 0.0, 2024-05-08 13:16:41.317
187.0, 6360.278291735446, 0.0, 0.0, 0.0, 0.0, 0.0, 0.0, 0.0, 0.096, -0.038, 0.99, 192.0, 0.0, 0.0, 0.0, 0.0, 0.0, 0.0, 0.0, 0.0, 0.0, 1.7151634013177583E9, 0.0, 2024-05-08 13:16:41.317
188.0, 6838.247995167732, 0.0, 0.0, 0.0, 0.0, 0.0, 0.0, 0.0, 0.096, -0.038, 0.99, 192.0, 0.0, 0.0, 0.0, 0.0, 0.0, 0.0, 0.0, 0.0, 0.0, 1.71516340131778E9, 0.0, 2024-05-08 13:16:41.317
189.0, 7856.884045229441, 0.0, 0.0, 0.0, 0.0, 0.0, 0.0, 0.0, 0.096, -0.038, 0.99, 192.0, 0.0, 0.0, 0.0, 0.0, 0.0, 0.0, 0.0, 0.0, 0.0, 1.715163401317814E9, 0.0, 2024-05-08 13:16:41.317
190.0, 8175.239941506379, 0.0, 0.0, 0.0, 0.0, 0.0, 0.0, 0.0, 0.096, -0.038, 0.99, 192.0, 0.0, 0.0, 0.0, 0.0, 0.0, 0.0, 0.0, 0.0, 0.0, 1.7151634013178337E9, 0.0, 2024-05-08 13:16:41.317
191.0, 7306.248820572951, 0.0, 0.0, 0.0, 0.0, 0.0, 0.0, 0.0, 0.098, -0.042, 0.99, 192.0, 3.0, 16.0, 254.0, 176.0, 30.0, 240.0, 0.0, 0.0, 0.0, 1.7151634013178513E9, 0.0, 2024-05-08 13:16:41.317
192.0, 6677.449545556253, 0.0, 0.0, 0.0, 0.0, 0.0, 0.0, 0.0, 0.098, -0.042, 0.99, 192.0, 0.0, 0.0, 0.0, 0.0, 0.0, 0.0, 0.0, 0.0, 0.0, 1.71516340131787E9, 0.0, 2024-05-08 13:16:41.317
193.0, 7182.42015629055, 0.0, 0.0, 0.0, 0.0, 0.0, 0.0, 0.0, 0.098, -0.042, 0.99, 192.0, 0.0, 0.0, 0.0, 0.0, 0.0, 0.0, 0.0, 0.0, 0.0, 1.715163401317888E9, 0.0, 2024-05-08 13:16:41.317
194.0, 8209.996904134381, 0.0, 0.0, 0.0, 0.0, 0.0, 0.0, 0.0, 0.098, -0.042, 0.99, 192.0, 0.0, 0.0, 0.0, 0.0, 0.0, 0.0, 0.0, 0.0, 0.0, 1.715163401317906E9, 0.0, 2024-05-08 13:16:41.317
195.0, 8470.193561338612, 0.0, 0.0, 0.0, 0.0, 0.0, 0.0, 0.0, 0.098, -0.042, 0.99, 192.0, 0.0, 0.0, 0.0, 0.0, 0.0, 0.0, 0.0, 0.0, 0.0, 1.7151634013179245E9, 0.0, 2024-05-08 13:16:41.317
196.0, 7502.228915957084, 0.0, 0.0, 0.0, 0.0, 0.0, 0.0, 0.0, 0.098, -0.042, 0.99, 192.0, 0.0, 0.0, 0.0, 0.0, 0.0, 0.0, 0.0, 0.0, 0.0, 1.7151634013179424E9, 0.0, 2024-05-08 13:16:41.317
197.0, 6728.52328163663, 0.0, 0.0, 0.0, 0.0, 0.0, 0.0, 0.0, 0.098, -0.042, 0.99, 192.0, 0.0, 0.0, 0.0, 0.0, 0.0, 0.0, 0.0, 0.0, 0.0, 1.7151634013179624E9, 0.0, 2024-05-08 13:16:41.317
198.0, 7121.131672994098, 0.0, 0.0, 0.0, 0.0, 0.0, 0.0, 0.0, 0.098, -0.042, 0.99, 192.0, 0.0, 0.0, 0.0, 0.0, 0.0, 0.0, 0.0, 0.0, 0.0, 1.7151634013179803E9, 0.0, 2024-05-08 13:16:41.317
199.0, 8084.536562506743, 0.0, 0.0, 0.0, 0.0, 0.0, 0.0, 0.0, 0.098, -0.042, 0.99, 192.0, 0.0, 0.0, 0.0, 0.0, 0.0, 0.0, 0.0, 0.0, 0.0, 1.7151634013179984E9, 0.0, 2024-05-08 13:16:41.317
200.0, 8339.681725464074, 0.0, 0.0, 0.0, 0.0, 0.0, 0.0, 0.0, 0.098, -0.042, 0.99, 192.0, 0.0, 0.0, 0.0, 0.0, 0.0, 0.0, 0.0, 0.0, 0.0, 1.7151634013180175E9, 0.0, 2024-05-08 13:16:41.318
201.0, 7369.437202148105, 0.0, 0.0, 0.0, 0.0, 0.0, 0.0, 0.0, 0.10200000000000001, -0.042, 0.994, 192.0, 3.0, 48.0, 254.0, 176.0, 31.0, 16.0, 0.0, 0.0, 0.0, 1.715163401318036E9, 0.0, 2024-05-08 13:16:41.318
202.0, 6603.442919664732, 0.0, 0.0, 0.0, 0.0, 0.0, 0.0, 0.0, 0.10200000000000001, -0.042, 0.994, 192.0, 0.0, 0.0, 0.0, 0.0, 0.0, 0.0, 0.0, 0.0, 0.0, 1.7151634013180566E9, 0.0, 2024-05-08 13:16:41.318
203.0, 6966.725822296838, 0.0, 0.0, 0.0, 0.0, 0.0, 0.0, 0.0, 0.10200000000000001, -0.042, 0.994, 192.0, 0.0, 0.0, 0.0, 0.0, 0.0, 0.0, 0.0, 0.0, 0.0, 1.7151634013180752E9, 0.0, 2024-05-08 13:16:41.318
204.0, 7903.263914974203, 0.0, 0.0, 0.0, 0.0, 0.0, 0.0, 0.0, 0.10200000000000001, -0.042, 0.994, 192.0, 0.0, 0.0, 0.0, 0.0, 0.0, 0.0, 0.0, 0.0, 0.0, 1.715163401318096E9, 0.0, 2024-05-08 13:16:41.318
205.0, 8107.357693595612, 0.0, 0.0, 0.0, 0.0, 0.0, 0.0, 0.0, 0.10200000000000001, -0.042, 0.994, 192.0, 0.0, 0.0, 0.0, 0.0, 0.0, 0.0, 0.0, 0.0, 0.0, 1.7151634013181148E9, 0.0, 2024-05-08 13:16:41.318
206.0, 7146.74677213988, 0.0, 0.0, 0.0, 0.0, 0.0, 0.0, 0.0, 0.10200000000000001, -0.042, 0.994, 192.0, 0.0, 0.0, 0.0, 0.0, 0.0, 0.0, 0.0, 0.0, 0.0, 1.715163401318427E9, 0.0, 2024-05-08 13:16:41.318
207.0, 6367.989643572527, 0.0, 0.0, 0.0, 0.0, 0.0, 0.0, 0.0, 0.10200000000000001, -0.042, 0.994, 192.0, 0.0, 0.0, 0.0, 0.0, 0.0, 0.0, 0.0, 0.0, 0.0, 1.7151634013184512E9, 0.0, 2024-05-08 13:16:41.318
208.0, 6681.718728747217, 0.0, 0.0, 0.0, 0.0, 0.0, 0.0, 0.0, 0.10200000000000001, -0.042, 0.994, 192.0, 0.0, 0.0, 0.0, 0.0, 0.0, 0.0, 0.0, 0.0, 0.0, 1.7151634013184693E9, 0.0, 2024-05-08 13:16:41.318
209.0, 7620.156719703284, 0.0, 0.0, 0.0, 0.0, 0.0, 0.0, 0.0, 0.10200000000000001, -0.042, 0.994, 192.0, 0.0, 0.0, 0.0, 0.0, 0.0, 0.0, 0.0, 0.0, 0.0, 1.7151634013185303E9, 0.0, 2024-05-08 13:16:41.318
210.0, 7872.46321111479, 0.0, 0.0, 0.0, 0.0, 0.0, 0.0, 0.0, 0.10200000000000001, -0.042, 0.994, 192.0, 0.0, 0.0, 0.0, 0.0, 0.0, 0.0, 0.0, 0.0, 0.0, 1.715163401318556E9, 0.0, 2024-05-08 13:16:41.318
211.0, 6887.26537075822, 0.0, 0.0, 0.0, 0.0, 0.0, 0.0, 0.0, 0.094, -0.038, 0.99, 192.0, 2.0, 240.0, 254.0, 208.0, 30.0, 240.0, 0.0, 0.0, 0.0, 1.7151634013185763E9, 0.0, 2024-05-08 13:16:41.318
212.0, 6078.400442409568, 0.0, 0.0, 0.0, 0.0, 0.0, 0.0, 0.0, 0.094, -0.038, 0.99, 192.0, 0.0, 0.0, 0.0, 0.0, 0.0, 0.0, 0.0, 0.0, 0.0, 1.7151634013185987E9, 0.0, 2024-05-08 13:16:41.318
213.0, 6405.8087951909065, 0.0, 0.0, 0.0, 0.0, 0.0, 0.0, 0.0, 0.094, -0.038, 0.99, 192.0, 0.0, 0.0, 0.0, 0.0, 0.0, 0.0, 0.0, 0.0, 0.0, 1.7151634013186207E9, 0.0, 2024-05-08 13:16:41.318
214.0, 7357.702536309068, 0.0, 0.0, 0.0, 0.0, 0.0, 0.0, 0.0, 0.094, -0.038, 0.99, 192.0, 0.0, 0.0, 0.0, 0.0, 0.0, 0.0, 0.0, 0.0, 0.0, 1.7151634013186421E9, 0.0, 2024-05-08 13:16:41.318
215.0, 7651.113885773884, 0.0, 0.0, 0.0, 0.0, 0.0, 0.0, 0.0, 0.094, -0.038, 0.99, 192.0, 0.0, 0.0, 0.0, 0.0, 0.0, 0.0, 0.0, 0.0, 0.0, 1.7151634013186624E9, 0.0, 2024-05-08 13:16:41.318
216.0, 6667.994757651658, 0.0, 0.0, 0.0, 0.0, 0.0, 0.0, 0.0, 0.094, -0.038, 0.99, 192.0, 0.0, 0.0, 0.0, 0.0, 0.0, 0.0, 0.0, 0.0, 0.0, 1.7151634013186824E9, 0.0, 2024-05-08 13:16:41.318
217.0, 5852.603119922057, 0.0, 0.0, 0.0, 0.0, 0.0, 0.0, 0.0, 0.094, -0.038, 0.99, 192.0, 0.0, 0.0, 0.0, 0.0, 0.0, 0.0, 0.0, 0.0, 0.0, 1.7151634013187037E9, 0.0, 2024-05-08 13:16:41.318
218.0, 6186.649940806621, 0.0, 0.0, 0.0, 0.0, 0.0, 0.0, 0.0, 0.094, -0.038, 0.99, 192.0, 0.0, 0.0, 0.0, 0.0, 0.0, 0.0, 0.0, 0.0, 0.0, 1.7151634013187234E9, 0.0, 2024-05-08 13:16:41.318
219.0, 7139.773027869825, 0.0, 0.0, 0.0, 0.0, 0.0, 0.0, 0.0, 0.094, -0.038, 0.99, 192.0, 0.0, 0.0, 0.0, 0.0, 0.0, 0.0, 0.0, 0.0, 0.0, 1.7151634013187444E9, 0.0, 2024-05-08 13:16:41.318
220.0, 7426.121226086763, 0.0, 0.0, 0.0, 0.0, 0.0, 0.0, 0.0, 0.094, -0.038, 0.99, 192.0, 0.0, 0.0, 0.0, 0.0, 0.0, 0.0, 0.0, 0.0, 0.0, 1.7151634013187652E9, 0.0, 2024-05-08 13:16:41.318
221.0, 6455.720240559607, 0.0, 0.0, 0.0, 0.0, 0.0, 0.0, 0.0, 0.09, -0.036000000000000004, 0.992, 192.0, 2.0, 208.0, 254.0, 224.0, 31.0, 0.0, 0.0, 0.0, 0.0, 1.715163401318785E9, 0.0, 2024-05-08 13:16:41.318
222.0, 5649.3587075899495, 0.0, 0.0, 0.0, 0.0, 0.0, 0.0, 0.0, 0.09, -0.036000000000000004, 0.992, 192.0, 0.0, 0.0, 0.0, 0.0, 0.0, 0.0, 0.0, 0.0, 0.0, 1.7151634013188064E9, 0.0, 2024-05-08 13:16:41.318
223.0, 6019.86122368112, 0.0, 0.0, 0.0, 0.0, 0.0, 0.0, 0.0, 0.09, -0.036000000000000004, 0.992, 192.0, 0.0, 0.0, 0.0, 0.0, 0.0, 0.0, 0.0, 0.0, 0.0, 1.7151634013188288E9, 0.0, 2024-05-08 13:16:41.318
224.0, 7030.517700972284, 0.0, 0.0, 0.0, 0.0, 0.0, 0.0, 0.0, 0.09, -0.036000000000000004, 0.992, 192.0, 0.0, 0.0, 0.0, 0.0, 0.0, 0.0, 0.0, 0.0, 0.0, 1.7151634013189957E9, 0.0, 2024-05-08 13:16:41.318
225.0, 7385.262237222462, 0.0, 0.0, 0.0, 0.0, 0.0, 0.0, 0.0, 0.09, -0.036000000000000004, 0.992, 192.0, 0.0, 0.0, 0.0, 0.0, 0.0, 0.0, 0.0, 0.0, 0.0, 1.715163401796432E9, 0.0, 2024-05-08 13:16:41.796
226.0, 6458.983595250082, 0.0, 0.0, 0.0, 0.0, 0.0, 0.0, 0.0, 0.09, -0.036000000000000004, 0.992, 192.0, 0.0, 0.0, 0.0, 0.0, 0.0, 0.0, 0.0, 0.0, 0.0, 1.7151634017965152E9, 0.0, 2024-05-08 13:16:41.796
227.0, 5647.92819594481, 0.0, 0.0, 0.0, 0.0, 0.0, 0.0, 0.0, 0.09, -0.036000000000000004, 0.992, 192.0, 0.0, 0.0, 0.0, 0.0, 0.0, 0.0, 0.0, 0.0, 0.0, 1.7151634017965555E9, 0.0, 2024-05-08 13:16:41.796
228.0, 6013.490976511357, 0.0, 0.0, 0.0, 0.0, 0.0, 0.0, 0.0, 0.09, -0.036000000000000004, 0.992, 192.0, 0.0, 0.0, 0.0, 0.0, 0.0, 0.0, 0.0, 0.0, 0.0, 1.7151634017965937E9, 0.0, 2024-05-08 13:16:41.796
229.0, 7042.274718555775, 0.0, 0.0, 0.0, 0.0, 0.0, 0.0, 0.0, 0.09, -0.036000000000000004, 0.992, 192.0, 0.0, 0.0, 0.0, 0.0, 0.0, 0.0, 0.0, 0.0, 0.0, 1.7151634017966168E9, 0.0, 2024-05-08 13:16:41.796
230.0, 7382.98235928802, 0.0, 0.0, 0.0, 0.0, 0.0, 0.0, 0.0, 0.09, -0.036000000000000004, 0.992, 192.0, 0.0, 0.0, 0.0, 0.0, 0.0, 0.0, 0.0, 0.0, 0.0, 1.7151634017966423E9, 0.0, 2024-05-08 13:16:41.796
231.0, 6484.509287418043, 0.0, 0.0, 0.0, 0.0, 0.0, 0.0, 0.0, 0.094, -0.044, 0.992, 192.0, 2.0, 240.0, 254.0, 160.0, 31.0, 0.0, 0.0, 0.0, 0.0, 1.7151634017966652E9, 0.0, 2024-05-08 13:16:41.796
232.0, 5694.777452323134, 0.0, 0.0, 0.0, 0.0, 0.0, 0.0, 0.0, 0.094, -0.044, 0.992, 192.0, 0.0, 0.0, 0.0, 0.0, 0.0, 0.0, 0.0, 0.0, 0.0, 1.7151634017966945E9, 0.0, 2024-05-08 13:16:41.796
233.0, 6046.079819927195, 0.0, 0.0, 0.0, 0.0, 0.0, 0.0, 0.0, 0.094, -0.044, 0.992, 192.0, 0.0, 0.0, 0.0, 0.0, 0.0, 0.0, 0.0, 0.0, 0.0, 1.7151634017967196E9, 0.0, 2024-05-08 13:16:41.796
234.0, 7058.3009193302305, 0.0, 0.0, 0.0, 0.0, 0.0, 0.0, 0.0, 0.094, -0.044, 0.992, 192.0, 0.0, 0.0, 0.0, 0.0, 0.0, 0.0, 0.0, 0.0, 0.0, 1.715163401796743E9, 0.0, 2024-05-08 13:16:41.796
235.0, 7435.643069224724, 0.0, 0.0, 0.0, 0.0, 0.0, 0.0, 0.0, 0.094, -0.044, 0.992, 192.0, 0.0, 0.0, 0.0, 0.0, 0.0, 0.0, 0.0, 0.0, 0.0, 1.7151634017967634E9, 0.0, 2024-05-08 13:16:41.796
236.0, 6528.586927483908, 0.0, 0.0, 0.0, 0.0, 0.0, 0.0, 0.0, 0.094, -0.044, 0.992, 192.0, 0.0, 0.0, 0.0, 0.0, 0.0, 0.0, 0.0, 0.0, 0.0, 1.7151634017967868E9, 0.0, 2024-05-08 13:16:41.796
237.0, 5743.683069191346, 0.0, 0.0, 0.0, 0.0, 0.0, 0.0, 0.0, 0.094, -0.044, 0.992, 192.0, 0.0, 0.0, 0.0, 0.0, 0.0, 0.0, 0.0, 0.0, 0.0, 1.7151634017968082E9, 0.0, 2024-05-08 13:16:41.796
238.0, 6088.637541370099, 0.0, 0.0, 0.0, 0.0, 0.0, 0.0, 0.0, 0.094, -0.044, 0.992, 192.0, 0.0, 0.0, 0.0, 0.0, 0.0, 0.0, 0.0, 0.0, 0.0, 1.7151634017968311E9, 0.0, 2024-05-08 13:16:41.796
239.0, 7098.645818072059, 0.0, 0.0, 0.0, 0.0, 0.0, 0.0, 0.0, 0.094, -0.044, 0.992, 192.0, 0.0, 0.0, 0.0, 0.0, 0.0, 0.0, 0.0, 0.0, 0.0, 1.715163401796852E9, 0.0, 2024-05-08 13:16:41.796
240.0, 7466.644938784235, 0.0, 0.0, 0.0, 0.0, 0.0, 0.0, 0.0, 0.094, -0.044, 0.992, 192.0, 0.0, 0.0, 0.0, 0.0, 0.0, 0.0, 0.0, 0.0, 0.0, 1.7151634017968736E9, 0.0, 2024-05-08 13:16:41.796
241.0, 6543.182616613223, 0.0, 0.0, 0.0, 0.0, 0.0, 0.0, 0.0, 0.092, -0.042, 0.986, 192.0, 2.0, 224.0, 254.0, 176.0, 30.0, 208.0, 0.0, 0.0, 0.0, 1.7151634017969816E9, 0.0, 2024-05-08 13:16:41.796
242.0, 5724.237051515228, 0.0, 0.0, 0.0, 0.0, 0.0, 0.0, 0.0, 0.092, -0.042, 0.986, 192.0, 0.0, 0.0, 0.0, 0.0, 0.0, 0.0, 0.0, 0.0, 0.0, 1.7151634017970123E9, 0.0, 2024-05-08 13:16:41.797
243.0, 6034.166340132516, 0.0, 0.0, 0.0, 0.0, 0.0, 0.0, 0.0, 0.092, -0.042, 0.986, 192.0, 0.0, 0.0, 0.0, 0.0, 0.0, 0.0, 0.0, 0.0, 0.0, 1.7151634017970347E9, 0.0, 2024-05-08 13:16:41.797
244.0, 7006.802500105203, 0.0, 0.0, 0.0, 0.0, 0.0, 0.0, 0.0, 0.092, -0.042, 0.986, 192.0, 0.0, 0.0, 0.0, 0.0, 0.0, 0.0, 0.0, 0.0, 0.0, 1.715163401797056E9, 0.0, 2024-05-08 13:16:41.797
245.0, 7349.320632138328, 0.0, 0.0, 0.0, 0.0, 0.0, 0.0, 0.0, 0.092, -0.042, 0.986, 192.0, 0.0, 0.0, 0.0, 0.0, 0.0, 0.0, 0.0, 0.0, 0.0, 1.7151634017970772E9, 0.0, 2024-05-08 13:16:41.797
246.0, 6417.275240096479, 0.0, 0.0, 0.0, 0.0, 0.0, 0.0, 0.0, 0.092, -0.042, 0.986, 192.0, 0.0, 0.0, 0.0, 0.0, 0.0, 0.0, 0.0, 0.0, 0.0, 1.715163401797098E9, 0.0, 2024-05-08 13:16:41.797
247.0, 5586.595009159447, 0.0, 0.0, 0.0, 0.0, 0.0, 0.0, 0.0, 0.092, -0.042, 0.986, 192.0, 0.0, 0.0, 0.0, 0.0, 0.0, 0.0, 0.0, 0.0, 0.0, 1.7151634017971194E9, 0.0, 2024-05-08 13:16:41.797
248.0, 5849.071544298118, 0.0, 0.0, 0.0, 0.0, 0.0, 0.0, 0.0, 0.092, -0.042, 0.986, 192.0, 0.0, 0.0, 0.0, 0.0, 0.0, 0.0, 0.0, 0.0, 0.0, 1.7151634017971413E9, 0.0, 2024-05-08 13:16:41.797
