%OpenBCI Raw EXG Data
%Number of channels = 8
%Sample Rate = 250 Hz
%Board = OpenBCI_GUI$BoardCytonSerial
Sample Index, EXG Channel 0, EXG Channel 1, EXG Channel 2, EXG Channel 3, EXG Channel 4, EXG Channel 5, EXG Channel 6, EXG Channel 7, Accel Channel 0, Accel Channel 1, Accel Channel 2, Other, Other, Other, Other, Other, Other, Other, Analog Channel 0, Analog Channel 1, Analog Channel 2, Timestamp, Other, Timestamp (Formatted)
168.0, -738.6357472700772, 0.0, 0.0, 0.0, 0.0, 0.0, 0.0, 0.0, 0.0, 0.0, 0.0, 192.0, 0.0, 0.0, 0.0, 0.0, 0.0, 0.0, 0.0, 0.0, 0.0, 1.7151634785657365E9, 0.0, 2024-05-08 13:17:58.565
169.0, -1044.4746666520437, 0.0, 0.0, 0.0, 0.0, 0.0, 0.0, 0.0, 0.094, -0.036000000000000004, 0.988, 192.0, 2.0, 240.0, 254.0, 224.0, 30.0, 224.0, 0.0, 0.0, 0.0, 1.7151634785658083E9, 0.0, 2024-05-08 13:17:58.565
170.0, -1185.2906567204782, 0.0, 0.0, 0.0, 0.0, 0.0, 0.0, 0.0, 0.094, -0.036000000000000004, 0.988, 192.0, 0.0, 0.0, 0.0, 0.0, 0.0, 0.0, 0.0, 0.0, 0.0, 1.7151634785658317E9, 0.0, 2024-05-08 13:17:58.565
171.0, -736.512331546823, 0.0, 0.0, 0.0, 0.0, 0.0, 0.0, 0.0, 0.094, -0.036000000000000004, 0.988, 192.0, 0.0, 0.0, 0.0, 0.0, 0.0, 0.0, 0.0, 0.0, 0.0, 1.7151634785658512E9, 0.0, 2024-05-08 13:17:58.565
172.0, -107.73540827458004, 0.0, 0.0, 0.0, 0.0, 0.0, 0.0, 0.0, 0.094, -0.036000000000000004, 0.988, 192.0, 0.0, 0.0, 0.0, 0.0, 0.0, 0.0, 0.0, 0.0, 0.0, 1.7151634785658724E9, 0.0, 2024-05-08 13:17:58.565
173.0, 101.14164366026446, 0.0, 0.0, 0.0, 0.0, 0.0, 0.0, 0.0, 0.094, -0.036000000000000004, 0.988, 192.0, 0.0, 0.0, 0.0, 0.0, 0.0, 0.0, 0.0, 0.0, 0.0, 1.7151634785658908E9, 0.0, 2024-05-08 13:17:58.565
174.0, -290.63973315235773, 0.0, 0.0, 0.0, 0.0, 0.0, 0.0, 0.0, 0.094, -0.036000000000000004, 0.988, 192.0, 0.0, 0.0, 0.0, 0.0, 0.0, 0.0, 0.0, 0.0, 0.0, 1.7151634785659106E9, 0.0, 2024-05-08 13:17:58.565
175.0, -502.37780837748153, 0.0, 0.0, 0.0, 0.0, 0.0, 0.0, 0.0, 0.094, -0.036000000000000004, 0.988, 192.0, 0.0, 0.0, 0.0, 0.0, 0.0, 0.0, 0.0, 0.0, 0.0, 1.7151634785659292E9, 0.0, 2024-05-08 13:17:58.565
176.0, -161.58076066741475, 0.0, 0.0, 0.0, 0.0, 0.0, 0.0, 0.0, 0.094, -0.036000000000000004, 0.988, 192.0, 0.0, 0.0, 0.0, 0.0, 0.0, 0.0, 0.0, 0.0, 0.0, 1.7151634785659473E9, 0.0, 2024-05-08 13:17:58.565
177.0, 301.99441933565373, 0.0, 0.0, 0.0, 0.0, 0.0, 0.0, 0.0, 0.094, -0.036000000000000004, 0.988, 192.0, 0.0, 0.0, 0.0, 0.0, 0.0, 0.0, 0.0, 0.0, 0.0, 1.7151634785659664E9, 0.0, 2024-05-08 13:17:58.565
178.0, 297.7028844002348, 0.0, 0.0, 0.0, 0.0, 0.0, 0.0, 0.0, 0.094, -0.036000000000000004, 0.988, 192.0, 0.0, 0.0, 0.0, 0.0, 0.0, 0.0, 0.0, 0.0, 0.0, 1.7151634785659852E9, 0.0, 2024-05-08 13:17:58.565
179.0, -301.6144396799135, 0.0, 0.0, 0.0, 0.0, 0.0, 0.0, 0.0, 0.092, -0.044, 0.992, 192.0, 2.0, 224.0, 254.0, 160.0, 31.0, 0.0, 0.0, 0.0, 0.0, 1.7151634785660112E9, 0.0, 2024-05-08 13:17:58.566
180.0, -717.9827353933734, 0.0, 0.0, 0.0, 0.0, 0.0, 0.0, 0.0, 0.092, -0.044, 0.992, 192.0, 0.0, 0.0, 0.0, 0.0, 0.0, 0.0, 0.0, 0.0, 0.0, 1.7151634785660355E9, 0.0, 2024-05-08 13:17:58.566
181.0, -576.5855999691009, 0.0, 0.0, 0.0, 0.0, 0.0, 0.0, 0.0, 0.092, -0.044, 0.992, 192.0, 0.0, 0.0, 0.0, 0.0, 0.0, 0.0, 0.0, 0.0, 0.0, 1.7151634785660558E9, 0.0, 2024-05-08 13:17:58.566
182.0, -233.2628051355845, 0.0, 0.0, 0.0, 0.0, 0.0, 0.0, 0.0, 0.092, -0.044, 0.992, 192.0, 0.0, 0.0, 0.0, 0.0, 0.0, 0.0, 0.0, 0.0, 0.0, 1.7151634785660772E9, 0.0, 2024-05-08 13:17:58.566
183.0, -344.5297890341031, 0.0, 0.0, 0.0, 0.0, 0.0, 0.0, 0.0, 0.092, -0.044, 0.992, 192.0, 0.0, 0.0, 0.0, 0.0, 0.0, 0.0, 0.0, 0.0, 0.0, 1.7151634785660965E9, 0.0, 2024-05-08 13:17:58.566
184.0, -1012.9363552256054, 0.0, 0.0, 0.0, 0.0, 0.0, 0.0, 0.0, 0.092, -0.044, 0.992, 192.0, 0.0, 0.0, 0.0, 0.0, 0.0, 0.0, 0.0, 0.0, 0.0, 1.715163478566115E9, 0.0, 2024-05-08 13:17:58.566
185.0, -1450.2035320047776, 0.0, 0.0, 0.0, 0.0, 0.0, 0.0, 0.0, 0.092, -0.044, 0.992, 192.0, 0.0, 0.0, 0.0, 0.0, 0.0, 0.0, 0.0, 0.0, 0.0, 1.715163478566136E9, 0.0, 2024-05-08 13:17:58.566
186.0, -1273.0212537075583, 0.0, 0.0, 0.0, 0.0, 0.0, 0.0, 0.0, 0.092, -0.044, 0.992, 192.0, 0.0, 0.0, 0.0, 0.0, 0.0, 0.0, 0.0, 0.0, 0.0, 1.715163478566157E9, 0.0, 2024-05-08 13:17:58.566
187.0, -843.9571671434841, 0.0, 0.0, 0.0, 0.0, 0.0, 0.0, 0.0, 0.092, -0.044, 0.992, 192.0, 0.0, 0.0, 0.0, 0.0, 0.0, 0.0, 0.0, 0.0, 0.0, 1.7151634785662816E9, 0.0, 2024-05-08 13:17:58.566
188.0, -828.7132774249646, 0.0, 0.0, 0.0, 0.0, 0.0, 0.0, 0.0, 0.092, -0.044, 0.992, 192.0, 0.0, 0.0, 0.0, 0.0, 0.0, 0.0, 0.0, 0.0, 0.0, 1.7151634785663009E9, 0.0, 2024-05-08 13:17:58.566
189.0, -1386.9927986851692, 0.0, 0.0, 0.0, 0.0, 0.0, 0.0, 0.0, 0.096, -0.042, 0.986, 192.0, 3.0, 0.0, 254.0, 176.0, 30.0, 208.0, 0.0, 0.0, 0.0, 1.7151634785663188E9, 0.0, 2024-05-08 13:17:58.566
190.0, -1702.0629885271776, 0.0, 0.0, 0.0, 0.0, 0.0, 0.0, 0.0, 0.096, -0.042, 0.986, 192.0, 0.0, 0.0, 0.0, 0.0, 0.0, 0.0, 0.0, 0.0, 0.0, 1.715163478566342E9, 0.0, 2024-05-08 13:17:58.566
191.0, -1372.6876822337726, 0.0, 0.0, 0.0, 0.0, 0.0, 0.0, 0.0, 0.096, -0.042, 0.986, 192.0, 0.0, 0.0, 0.0, 0.0, 0.0, 0.0, 0.0, 0.0, 0.0, 1.7151634785663605E9, 0.0, 2024-05-08 13:17:58.566
192.0, -789.9330007950069, 0.0, 0.0, 0.0, 0.0, 0.0, 0.0, 0.0, 0.096, -0.042, 0.986, 192.0, 0.0, 0.0, 0.0, 0.0, 0.0, 0.0, 0.0, 0.0, 0.0, 1.7151634785663853E9, 0.0, 2024-05-08 13:17:58.566
193.0, -606.3134200946594, 0.0, 0.0, 0.0, 0.0, 0.0, 0.0, 0.0, 0.096, -0.042, 0.986, 192.0, 0.0, 0.0, 0.0, 0.0, 0.0, 0.0, 0.0, 0.0, 0.0, 1.715163478566406E9, 0.0, 2024-05-08 13:17:58.566
194.0, -1010.8129395023512, 0.0, 0.0, 0.0, 0.0, 0.0, 0.0, 0.0, 0.096, -0.042, 0.986, 192.0, 0.0, 0.0, 0.0, 0.0, 0.0, 0.0, 0.0, 0.0, 0.0, 1.715163478566432E9, 0.0, 2024-05-08 13:17:58.566
195.0, -1205.7648546415394, 0.0, 0.0, 0.0, 0.0, 0.0, 0.0, 0.0, 0.096, -0.042, 0.986, 192.0, 0.0, 0.0, 0.0, 0.0, 0.0, 0.0, 0.0, 0.0, 0.0, 1.715163478566455E9, 0.0, 2024-05-08 13:17:58.566
196.0, -752.4938288323676, 0.0, 0.0, 0.0, 0.0, 0.0, 0.0, 0.0, 0.096, -0.042, 0.986, 192.0, 0.0, 0.0, 0.0, 0.0, 0.0, 0.0, 0.0, 0.0, 0.0, 1.7151634785664723E9, 0.0, 2024-05-08 13:17:58.566
197.0, -40.25549176400802, 0.0, 0.0, 0.0, 0.0, 0.0, 0.0, 0.0, 0.096, -0.042, 0.986, 192.0, 0.0, 0.0, 0.0, 0.0, 0.0, 0.0, 0.0, 0.0, 0.0, 1.715163478566492E9, 0.0, 2024-05-08 13:17:58.566
198.0, 236.61556680388057, 0.0, 0.0, 0.0, 0.0, 0.0, 0.0, 0.0, 0.096, -0.042, 0.986, 192.0, 0.0, 0.0, 0.0, 0.0, 0.0, 0.0, 0.0, 0.0, 0.0, 1.7151634785665095E9, 0.0, 2024-05-08 13:17:58.566
199.0, -152.03656578499863, 0.0, 0.0, 0.0, 0.0, 0.0, 0.0, 0.0, 0.10200000000000001, -0.04, 0.986, 192.0, 3.0, 48.0, 254.0, 192.0, 30.0, 208.0, 0.0, 0.0, 0.0, 1.7151634785665276E9, 0.0, 2024-05-08 13:17:58.566
200.0, -388.5850773555133, 0.0, 0.0, 0.0, 0.0, 0.0, 0.0, 0.0, 0.10200000000000001, -0.04, 0.986, 192.0, 0.0, 0.0, 0.0, 0.0, 0.0, 0.0, 0.0, 0.0, 0.0, 1.715163478566547E9, 0.0, 2024-05-08 13:17:58.566
201.0, 46.71514591159176, 0.0, 0.0, 0.0, 0.0, 0.0, 0.0, 0.0, 0.10200000000000001, -0.04, 0.986, 192.0, 0.0, 0.0, 0.0, 0.0, 0.0, 0.0, 0.0, 0.0, 0.0, 1.7151634785665648E9, 0.0, 2024-05-08 13:17:58.566
202.0, 707.4774154993792, 0.0, 0.0, 0.0, 0.0, 0.0, 0.0, 0.0, 0.10200000000000001, -0.04, 0.986, 192.0, 0.0, 0.0, 0.0, 0.0, 0.0, 0.0, 0.0, 0.0, 0.0, 1.715163478566582E9, 0.0, 2024-05-08 13:17:58.566
203.0, 905.7150370734975, 0.0, 0.0, 0.0, 0.0, 0.0, 0.0, 0.0, 0.10200000000000001, -0.04, 0.986, 192.0, 0.0, 0.0, 0.0, 0.0, 0.0, 0.0, 0.0, 0.0, 0.0, 1.7151634785666E9, 0.0, 2024-05-08 13:17:58.566
204.0, 469.5654475170908, 0.0, 0.0, 0.0, 0.0, 0.0, 0.0, 0.0, 0.10200000000000001, -0.04, 0.986, 192.0, 0.0, 0.0, 0.0, 0.0, 0.0, 0.0, 0.0, 0.0, 0.0, 1.7151634785666354E9, 0.0, 2024-05-08 13:17:58.566
205.0, 229.91004346728846, 0.0, 0.0, 0.0, 0.0, 0.0, 0.0, 0.0, 0.10200000000000001, -0.04, 0.986, 192.0, 0.0, 0.0, 0.0, 0.0, 0.0, 0.0, 0.0, 0.0, 0.0, 1.715163478566653E9, 0.0, 2024-05-08 13:17:58.566
206.0, 586.1521465959725, 0.0, 0.0, 0.0, 0.0, 0.0, 0.0, 0.0, 0.10200000000000001, -0.04, 0.986, 192.0, 0.0, 0.0, 0.0, 0.0, 0.0, 0.0, 0.0, 0.0, 0.0, 1.715163478566671E9, 0.0, 2024-05-08 13:17:58.566
207.0, 1167.3869094117772, 0.0, 0.0, 0.0, 0.0, 0.0, 0.0, 0.0, 0.10200000000000001, -0.04, 0.986, 192.0, 0.0, 0.0, 0.0, 0.0, 0.0, 0.0, 0.0, 0.0, 0.0, 1.7151634785666878E9, 0.0, 2024-05-08 13:17:58.566
208.0, 1282.4536898676981, 0.0, 0.0, 0.0, 0.0, 0.0, 0.0, 0.0, 0.10200000000000001, -0.04, 0.986, 192.0, 0.0, 0.0, 0.0, 0.0, 0.0, 0.0, 0.0, 0.0, 0.0, 1.7151634785667052E9, 0.0, 2024-05-08 13:17:58.566
209.0, 718.8097499382199, 0.0, 0.0, 0.0, 0.0, 0.0, 0.0, 0.0, 0.1, -0.04, 0.986, 192.0, 3.0, 32.0, 254.0, 192.0, 30.0, 208.0, 0.0, 0.0, 0.0, 1.7151634785667224E9, 0.0, 2024-05-08 13:17:58.566
210.0, 294.953619832232, 0.0, 0.0, 0.0, 0.0, 0.0, 0.0, 0.0, 0.1, -0.04, 0.986, 192.0, 0.0, 0.0, 0.0, 0.0, 0.0, 0.0, 0.0, 0.0, 0.0, 1.715163478566742E9, 0.0, 2024-05-08 13:17:58.566
211.0, 464.75982245919977, 0.0, 0.0, 0.0, 0.0, 0.0, 0.0, 0.0, 0.1, -0.04, 0.986, 192.0, 0.0, 0.0, 0.0, 0.0, 0.0, 0.0, 0.0, 0.0, 0.0, 1.7151634785667615E9, 0.0, 2024-05-08 13:17:58.566
212.0, 902.0717027272824, 0.0, 0.0, 0.0, 0.0, 0.0, 0.0, 0.0, 0.1, -0.04, 0.986, 192.0, 0.0, 0.0, 0.0, 0.0, 0.0, 0.0, 0.0, 0.0, 0.0, 1.7151634785667825E9, 0.0, 2024-05-08 13:17:58.566
213.0, 920.2213192249918, 0.0, 0.0, 0.0, 0.0, 0.0, 0.0, 0.0, 0.1, -0.04, 0.986, 192.0, 0.0, 0.0, 0.0, 0.0, 0.0, 0.0, 0.0, 0.0, 0.0, 1.715163478566802E9, 0.0, 2024-05-08 13:17:58.566
214.0, 308.2976112720503, 0.0, 0.0, 0.0, 0.0, 0.0, 0.0, 0.0, 0.1, -0.04, 0.986, 192.0, 0.0, 0.0, 0.0, 0.0, 0.0, 0.0, 0.0, 0.0, 0.0, 1.7151634785668204E9, 0.0, 2024-05-08 13:17:58.566
215.0, -73.22431483558594, 0.0, 0.0, 0.0, 0.0, 0.0, 0.0, 0.0, 0.1, -0.04, 0.986, 192.0, 0.0, 0.0, 0.0, 0.0, 0.0, 0.0, 0.0, 0.0, 0.0, 1.7151634785668378E9, 0.0, 2024-05-08 13:17:58.566
216.0, 264.3317299284613, 0.0, 0.0, 0.0, 0.0, 0.0, 0.0, 0.0, 0.1, -0.04, 0.986, 192.0, 0.0, 0.0, 0.0, 0.0, 0.0, 0.0, 0.0, 0.0, 0.0, 1.715163478566861E9, 0.0, 2024-05-08 13:17:58.566
217.0, 908.8219295527852, 0.0, 0.0, 0.0, 0.0, 0.0, 0.0, 0.0, 0.1, -0.04, 0.986, 192.0, 0.0, 0.0, 0.0, 0.0, 0.0, 0.0, 0.0, 0.0, 0.0, 1.7151634785668788E9, 0.0, 2024-05-08 13:17:58.566
218.0, 1088.5076032289987, 0.0, 0.0, 0.0, 0.0, 0.0, 0.0, 0.0, 0.1, -0.04, 0.986, 192.0, 0.0, 0.0, 0.0, 0.0, 0.0, 0.0, 0.0, 0.0, 0.0, 1.7151634785668964E9, 0.0, 2024-05-08 13:17:58.566
219.0, 585.3474837955814, 0.0, 0.0, 0.0, 0.0, 0.0, 0.0, 0.0, 0.094, -0.036000000000000004, 0.984, 192.0, 2.0, 240.0, 254.0, 224.0, 30.0, 192.0, 0.0, 0.0, 0.0, 1.7151634785669153E9, 0.0, 2024-05-08 13:17:58.566
220.0, 233.75454351360125, 0.0, 0.0, 0.0, 0.0, 0.0, 0.0, 0.0, 0.094, -0.036000000000000004, 0.984, 192.0, 0.0, 0.0, 0.0, 0.0, 0.0, 0.0, 0.0, 0.0, 0.0, 1.7151634785669415E9, 0.0, 2024-05-08 13:17:58.566
221.0, 505.21647992330554, 0.0, 0.0, 0.0, 0.0, 0.0, 0.0, 0.0, 0.094, -0.036000000000000004, 0.984, 192.0, 0.0, 0.0, 0.0, 0.0, 0.0, 0.0, 0.0, 0.0, 0.0, 1.7151634785669653E9, 0.0, 2024-05-08 13:17:58.566
222.0, 998.8100527298513, 0.0, 0.0, 0.0, 0.0, 0.0, 0.0, 0.0, 0.094, -0.036000000000000004, 0.984, 192.0, 0.0, 0.0, 0.0, 0.0, 0.0, 0.0, 0.0, 0.0, 0.0, 1.7151634785670123E9, 0.0, 2024-05-08 13:17:58.567
223.0, 995.6137532727425, 0.0, 0.0, 0.0, 0.0, 0.0, 0.0, 0.0, 0.094, -0.036000000000000004, 0.984, 192.0, 0.0, 0.0, 0.0, 0.0, 0.0, 0.0, 0.0, 0.0, 0.0, 1.715163478567031E9, 0.0, 2024-05-08 13:17:58.567
224.0, 222.4445608192159, 0.0, 0.0, 0.0, 0.0, 0.0, 0.0, 0.0, 0.094, -0.036000000000000004, 0.984, 192.0, 0.0, 0.0, 0.0, 0.0, 0.0, 0.0, 0.0, 0.0, 0.0, 1.715163478567054E9, 0.0, 2024-05-08 13:17:58.567
225.0, -390.5743826120356, 0.0, 0.0, 0.0, 0.0, 0.0, 0.0, 0.0, 0.094, -0.036000000000000004, 0.984, 192.0, 0.0, 0.0, 0.0, 0.0, 0.0, 0.0, 0.0, 0.0, 0.0, 1.715163478567086E9, 0.0, 2024-05-08 13:17:58.567
226.0, -347.8378472134885, 0.0, 0.0, 0.0, 0.0, 0.0, 0.0, 0.0, 0.094, -0.036000000000000004, 0.984, 192.0, 0.0, 0.0, 0.0, 0.0, 0.0, 0.0, 0.0, 0.0, 0.0, 1.7151634785671203E9, 0.0, 2024-05-08 13:17:58.567
227.0, 8.627773359748526, 0.0, 0.0, 0.0, 0.0, 0.0, 0.0, 0.0, 0.094, -0.036000000000000004, 0.984, 192.0, 0.0, 0.0, 0.0, 0.0, 0.0, 0.0, 0.0, 0.0, 0.0, 1.715163478567147E9, 0.0, 2024-05-08 13:17:58.567
228.0, -109.76941702001298, 0.0, 0.0, 0.0, 0.0, 0.0, 0.0, 0.0, 0.094, -0.036000000000000004, 0.984, 192.0, 0.0, 0.0, 0.0, 0.0, 0.0, 0.0, 0.0, 0.0, 0.0, 1.715163478567171E9, 0.0, 2024-05-08 13:17:58.567
229.0, -997.6030585292648, 0.0, 0.0, 0.0, 0.0, 0.0, 0.0, 0.0, 0.1, -0.034, 0.986, 192.0, 3.0, 32.0, 254.0, 240.0, 30.0, 208.0, 0.0, 0.0, 0.0, 1.7151634785671957E9, 0.0, 2024-05-08 13:17:58.567
230.0, -1716.0328288117444, 0.0, 0.0, 0.0, 0.0, 0.0, 0.0, 0.0, 0.1, -0.034, 0.986, 192.0, 0.0, 0.0, 0.0, 0.0, 0.0, 0.0, 0.0, 0.0, 0.0, 1.715163478567214E9, 0.0, 2024-05-08 13:17:58.567
231.0, -1728.81802664018, 0.0, 0.0, 0.0, 0.0, 0.0, 0.0, 0.0, 0.1, -0.034, 0.986, 192.0, 0.0, 0.0, 0.0, 0.0, 0.0, 0.0, 0.0, 0.0, 0.0, 1.7151634785672314E9, 0.0, 2024-05-08 13:17:58.567
232.0, -1381.0472346600575, 0.0, 0.0, 0.0, 0.0, 0.0, 0.0, 0.0, 0.1, -0.034, 0.986, 192.0, 0.0, 0.0, 0.0, 0.0, 0.0, 0.0, 0.0, 0.0, 0.0, 1.7151634785672524E9, 0.0, 2024-05-08 13:17:58.567
233.0, -1506.4181693098749, 0.0, 0.0, 0.0, 0.0, 0.0, 0.0, 0.0, 0.1, -0.034, 0.986, 192.0, 0.0, 0.0, 0.0, 0.0, 0.0, 0.0, 0.0, 0.0, 0.0, 1.7151634785672765E9, 0.0, 2024-05-08 13:17:58.567
234.0, -2377.3762437553696, 0.0, 0.0, 0.0, 0.0, 0.0, 0.0, 0.0, 0.1, -0.034, 0.986, 192.0, 0.0, 0.0, 0.0, 0.0, 0.0, 0.0, 0.0, 0.0, 0.0, 1.7151634785673003E9, 0.0, 2024-05-08 13:17:58.567
235.0, -3027.2532137934227, 0.0, 0.0, 0.0, 0.0, 0.0, 0.0, 0.0, 0.1, -0.034, 0.986, 192.0, 0.0, 0.0, 0.0, 0.0, 0.0, 0.0, 0.0, 0.0, 0.0, 1.7151634785673232E9, 0.0, 2024-05-08 13:17:58.567
236.0, -2907.693732701985, 0.0, 0.0, 0.0, 0.0, 0.0, 0.0, 0.0, 0.1, -0.034, 0.986, 192.0, 0.0, 0.0, 0.0, 0.0, 0.0, 0.0, 0.0, 0.0, 0.0, 1.715163478567345E9, 0.0, 2024-05-08 13:17:58.567
237.0, -2413.9660494287073, 0.0, 0.0, 0.0, 0.0, 0.0, 0.0, 0.0, 0.1, -0.034, 0.986, 192.0, 0.0, 0.0, 0.0, 0.0, 0.0, 0.0, 0.0, 0.0, 0.0, 1.715163478567366E9, 0.0, 2024-05-08 13:17:58.567
238.0, -2346.866112573876, 0.0, 0.0, 0.0, 0.0, 0.0, 0.0, 0.0, 0.1, -0.034, 0.986, 192.0, 0.0, 0.0, 0.0, 0.0, 0.0, 0.0, 0.0, 0.0, 0.0, 1.715163478567401E9, 0.0, 2024-05-08 13:17:58.567
239.0, -3018.245460777934, 0.0, 0.0, 0.0, 0.0, 0.0, 0.0, 0.0, 0.094, -0.038, 0.99, 192.0, 2.0, 240.0, 254.0, 208.0, 30.0, 240.0, 0.0, 0.0, 0.0, 1.7151634785674715E9, 0.0, 2024-05-08 13:17:58.567
240.0, -3503.9488677917566, 0.0, 0.0, 0.0, 0.0, 0.0, 0.0, 0.0, 0.094, -0.038, 0.99, 192.0, 0.0, 0.0, 0.0, 0.0, 0.0, 0.0, 0.0, 0.0, 0.0, 1.7151634785674973E9, 0.0, 2024-05-08 13:17:58.567
241.0, -3236.3984866617307, 0.0, 0.0, 0.0, 0.0, 0.0, 0.0, 0.0, 0.094, -0.038, 0.99, 192.0, 0.0, 0.0, 0.0, 0.0, 0.0, 0.0, 0.0, 0.0, 0.0, 1.7151634785675223E9, 0.0, 2024-05-08 13:17:58.567
242.0, -2667.8818664409955, 0.0, 0.0, 0.0, 0.0, 0.0, 0.0, 0.0, 0.094, -0.038, 0.99, 192.0, 0.0, 0.0, 0.0, 0.0, 0.0, 0.0, 0.0, 0.0, 0.0, 1.715163478567546E9, 0.0, 2024-05-08 13:17:58.567
243.0, -2616.3834472159683, 0.0, 0.0, 0.0, 0.0, 0.0, 0.0, 0.0, 0.094, -0.038, 0.99, 192.0, 0.0, 0.0, 0.0, 0.0, 0.0, 0.0, 0.0, 0.0, 0.0, 1.71516347856757E9, 0.0, 2024-05-08 13:17:58.567
244.0, -3432.266823323587, 0.0, 0.0, 0.0, 0.0, 0.0, 0.0, 0.0, 0.094, -0.038, 0.99, 192.0, 0.0, 0.0, 0.0, 0.0, 0.0, 0.0, 0.0, 0.0, 0.0, 1.7151634785675967E9, 0.0, 2024-05-08 13:17:58.567
245.0, -4108.407093096625, 0.0, 0.0, 0.0, 0.0, 0.0, 0.0, 0.0, 0.094, -0.038, 0.99, 192.0, 0.0, 0.0, 0.0, 0.0, 0.0, 0.0, 0.0, 0.0, 0.0, 1.7151634785676205E9, 0.0, 2024-05-08 13:17:58.567
246.0, -4030.1759875030507, 0.0, 0.0, 0.0, 0.0, 0.0, 0.0, 0.0, 0.094, -0.038, 0.99, 192.0, 0.0, 0.0, 0.0, 0.0, 0.0, 0.0, 0.0, 0.0, 0.0, 1.715163478567644E9, 0.0, 2024-05-08 13:17:58.567
247.0, -3573.0604616475657, 0.0, 0.0, 0.0, 0.0, 0.0, 0.0, 0.0, 0.094, -0.038, 0.99, 192.0, 0.0, 0.0, 0.0, 0.0, 0.0, 0.0, 0.0, 0.0, 0.0, 1.715163478567668E9, 0.0, 2024-05-08 13:17:58.567
248.0, -3568.1654296118536, 0.0, 0.0, 0.0, 0.0, 0.0, 0.0, 0.0, 0.094, -0.038, 0.99, 192.0, 0.0, 0.0, 0.0, 0.0, 0.0, 0.0, 0.0, 0.0, 0.0, 1.7151634785676908E9, 0.0, 2024-05-08 13:17:58.567
249.0, -4399.225640204625, 0.0, 0.0, 0.0, 0.0, 0.0, 0.0, 0.0, 0.098, -0.036000000000000004, 0.986, 192.0, 3.0, 16.0, 254.0, 224.0, 30.0, 208.0, 0.0, 0.0, 0.0, 1.7151634785677128E9, 0.0, 2024-05-08 13:17:58.567
250.0, -5096.980046865946, 0.0, 0.0, 0.0, 0.0, 0.0, 0.0, 0.0, 0.098, -0.036000000000000004, 0.986, 192.0, 0.0, 0.0, 0.0, 0.0, 0.0, 0.0, 0.0, 0.0, 0.0, 1.7151634785677426E9, 0.0, 2024-05-08 13:17:58.567
251.0, -5063.385374949619, 0.0, 0.0, 0.0, 0.0, 0.0, 0.0, 0.0, 0.098, -0.036000000000000004, 0.986, 192.0, 0.0, 0.0, 0.0, 0.0, 0.0, 0.0, 0.0, 0.0, 0.0, 1.7151634785677617E9, 0.0, 2024-05-08 13:17:58.567
252.0, -4623.100712668981, 0.0, 0.0, 0.0, 0.0, 0.0, 0.0, 0.0, 0.098, -0.036000000000000004, 0.986, 192.0, 0.0, 0.0, 0.0, 0.0, 0.0, 0.0, 0.0, 0.0, 0.0, 1.7151634785677795E9, 0.0, 2024-05-08 13:17:58.567
253.0, -4614.227070120224, 0.0, 0.0, 0.0, 0.0, 0.0, 0.0, 0.0, 0.098, -0.036000000000000004, 0.986, 192.0, 0.0, 0.0, 0.0, 0.0, 0.0, 0.0, 0.0, 0.0, 0.0, 1.715163478567797E9, 0.0, 2024-05-08 13:17:58.567
254.0, -5398.683893523681, 0.0, 0.0, 0.0, 0.0, 0.0, 0.0, 0.0, 0.098, -0.036000000000000004, 0.986, 192.0, 0.0, 0.0, 0.0, 0.0, 0.0, 0.0, 0.0, 0.0, 0.0, 1.715163478567829E9, 0.0, 2024-05-08 13:17:58.567
255.0, -5962.685461364444, 0.0, 0.0, 0.0, 0.0, 0.0, 0.0, 0.0, 0.098, -0.036000000000000004, 0.986, 192.0, 0.0, 0.0, 0.0, 0.0, 0.0, 0.0, 0.0, 0.0, 0.0, 1.7151634785678463E9, 0.0, 2024-05-08 13:17:58.567
0.0, -5684.853277784977, 0.0, 0.0, 0.0, 0.0, 0.0, 0.0, 0.0, 0.098, -0.036000000000000004, 0.986, 192.0, 0.0, 0.0, 0.0, 0.0, 0.0, 0.0, 0.0, 0.0, 0.0, 1.7151634785678701E9, 0.0, 2024-05-08 13:17:58.567
1.0, -4971.631463960584, 0.0, 0.0, 0.0, 0.0, 0.0, 0.0, 0.0, 0.098, -0.036000000000000004, 0.986, 192.0, 0.0, 0.0, 0.0, 0.0, 0.0, 0.0, 0.0, 0.0, 0.0, 1.7151634785679352E9, 0.0, 2024-05-08 13:17:58.567
2.0, -4732.7807227111725, 0.0, 0.0, 0.0, 0.0, 0.0, 0.0, 0.0, 0.098, -0.036000000000000004, 0.986, 192.0, 0.0, 0.0, 0.0, 0.0, 0.0, 0.0, 0.0, 0.0, 0.0, 1.7151634785679567E9, 0.0, 2024-05-08 13:17:58.567
3.0, -5355.477971491572, 0.0, 0.0, 0.0, 0.0, 0.0, 0.0, 0.0, 0.096, -0.04, 0.984, 192.0, 3.0, 0.0, 254.0, 192.0, 30.0, 192.0, 0.0, 0.0, 0.0, 1.7151634785679848E9, 0.0, 2024-05-08 13:17:58.567
4.0, -5808.458424622825, 0.0, 0.0, 0.0, 0.0, 0.0, 0.0, 0.0, 0.096, -0.04, 0.984, 192.0, 0.0, 0.0, 0.0, 0.0, 0.0, 0.0, 0.0, 0.0, 0.0, 1.715163478568013E9, 0.0, 2024-05-08 13:17:58.568
5.0, -5418.196966433164, 0.0, 0.0, 0.0, 0.0, 0.0, 0.0, 0.0, 0.096, -0.04, 0.984, 192.0, 0.0, 0.0, 0.0, 0.0, 0.0, 0.0, 0.0, 0.0, 0.0, 1.7151634785680344E9, 0.0, 2024-05-08 13:17:58.568
6.0, -4594.065796621537, 0.0, 0.0, 0.0, 0.0, 0.0, 0.0, 0.0, 0.096, -0.04, 0.984, 192.0, 0.0, 0.0, 0.0, 0.0, 0.0, 0.0, 0.0, 0.0, 0.0, 1.7151634785680552E9, 0.0, 2024-05-08 13:17:58.568
7.0, -4283.957694048607, 0.0, 0.0, 0.0, 0.0, 0.0, 0.0, 0.0, 0.096, -0.04, 0.984, 192.0, 0.0, 0.0, 0.0, 0.0, 0.0, 0.0, 0.0, 0.0, 0.0, 1.715163478568076E9, 0.0, 2024-05-08 13:17:58.568
8.0, -4889.734672276339, 0.0, 0.0, 0.0, 0.0, 0.0, 0.0, 0.0, 0.096, -0.04, 0.984, 192.0, 0.0, 0.0, 0.0, 0.0, 0.0, 0.0, 0.0, 0.0, 0.0, 1.715163478568099E9, 0.0, 2024-05-08 13:17:58.568
9.0, -5351.588767956348, 0.0, 0.0, 0.0, 0.0, 0.0, 0.0, 0.0, 0.096, -0.04, 0.984, 192.0, 0.0, 0.0, 0.0, 0.0, 0.0, 0.0, 0.0, 0.0, 0.0, 1.7151634785681276E9, 0.0, 2024-05-08 13:17:58.568
10.0, -4949.212664271911, 0.0, 0.0, 0.0, 0.0, 0.0, 0.0, 0.0, 0.096, -0.04, 0.984, 192.0, 0.0, 0.0, 0.0, 0.0, 0.0, 0.0, 0.0, 0.0, 0.0, 1.715163478568156E9, 0.0, 2024-05-08 13:17:58.568
11.0, -4114.19619491055, 0.0, 0.0, 0.0, 0.0, 0.0, 0.0, 0.0, 0.096, -0.04, 0.984, 192.0, 0.0, 0.0, 0.0, 0.0, 0.0, 0.0, 0.0, 0.0, 0.0, 1.715163478568184E9, 0.0, 2024-05-08 13:17:58.568
12.0, -3798.723673668346, 0.0, 0.0, 0.0, 0.0, 0.0, 0.0, 0.0, 0.096, -0.04, 0.984, 192.0, 0.0, 0.0, 0.0, 0.0, 0.0, 0.0, 0.0, 0.0, 0.0, 1.7151634785682087E9, 0.0, 2024-05-08 13:17:58.568
13.0, -4409.082759509416, 0.0, 0.0, 0.0, 0.0, 0.0, 0.0, 0.0, 0.092, -0.042, 0.986, 192.0, 2.0, 224.0, 254.0, 176.0, 30.0, 208.0, 0.0, 0.0, 0.0, 1.715163478568232E9, 0.0, 2024-05-08 13:17:58.568
14.0, -4858.53163701673, 0.0, 0.0, 0.0, 0.0, 0.0, 0.0, 0.0, 0.092, -0.042, 0.986, 192.0, 0.0, 0.0, 0.0, 0.0, 0.0, 0.0, 0.0, 0.0, 0.0, 1.7151634785682635E9, 0.0, 2024-05-08 13:17:58.568
15.0, -4446.5666349609655, 0.0, 0.0, 0.0, 0.0, 0.0, 0.0, 0.0, 0.092, -0.042, 0.986, 192.0, 0.0, 0.0, 0.0, 0.0, 0.0, 0.0, 0.0, 0.0, 0.0, 1.715163478568289E9, 0.0, 2024-05-08 13:17:58.568
16.0, -3582.448194318795, 0.0, 0.0, 0.0, 0.0, 0.0, 0.0, 0.0, 0.092, -0.042, 0.986, 192.0, 0.0, 0.0, 0.0, 0.0, 0.0, 0.0, 0.0, 0.0, 0.0, 1.7151634785683153E9, 0.0, 2024-05-08 13:17:58.568
17.0, -3252.7376118585603, 0.0, 0.0, 0.0, 0.0, 0.0, 0.0, 0.0, 0.092, -0.042, 0.986, 192.0, 0.0, 0.0, 0.0, 0.0, 0.0, 0.0, 0.0, 0.0, 0.0, 1.7151634785683398E9, 0.0, 2024-05-08 13:17:58.568
18.0, -3890.3434741906494, 0.0, 0.0, 0.0, 0.0, 0.0, 0.0, 0.0, 0.092, -0.042, 0.986, 192.0, 0.0, 0.0, 0.0, 0.0, 0.0, 0.0, 0.0, 0.0, 0.0, 1.7151634785684395E9, 0.0, 2024-05-08 13:17:58.568
19.0, -4389.77085230003, 0.0, 0.0, 0.0, 0.0, 0.0, 0.0, 0.0, 0.092, -0.042, 0.986, 192.0, 0.0, 0.0, 0.0, 0.0, 0.0, 0.0, 0.0, 0.0, 0.0, 1.7151634785685194E9, 0.0, 2024-05-08 13:17:58.568
20.0, -4044.5034556989026, 0.0, 0.0, 0.0, 0.0, 0.0, 0.0, 0.0, 0.092, -0.042, 0.986, 192.0, 0.0, 0.0, 0.0, 0.0, 0.0, 0.0, 0.0, 0.0, 0.0, 1.7151634785685525E9, 0.0, 2024-05-08 13:17:58.568
21.0, -3251.3071002134207, 0.0, 0.0, 0.0, 0.0, 0.0, 0.0, 0.0, 0.092, -0.042, 0.986, 192.0, 0.0, 0.0, 0.0, 0.0, 0.0, 0.0, 0.0, 0.0, 0.0, 1.7151634785685785E9, 0.0, 2024-05-08 13:17:58.568
22.0, -2994.887887822138, 0.0, 0.0, 0.0, 0.0, 0.0, 0.0, 0.0, 0.09, -0.042, 0.988, 192.0, 2.0, 208.0, 254.0, 176.0, 30.0, 224.0, 0.0, 0.0, 0.0, 1.715163478568602E9, 0.0, 2024-05-08 13:17:58.568
23.0, -3714.7705214942125, 0.0, 0.0, 0.0, 0.0, 0.0, 0.0, 0.0, 0.09, -0.042, 0.988, 192.0, 0.0, 0.0, 0.0, 0.0, 0.0, 0.0, 0.0, 0.0, 0.0, 1.7151634785686305E9, 0.0, 2024-05-08 13:17:58.568
24.0, -4288.159822006205, 0.0, 0.0, 0.0, 0.0, 0.0, 0.0, 0.0, 0.09, -0.042, 0.988, 192.0, 0.0, 0.0, 0.0, 0.0, 0.0, 0.0, 0.0, 0.0, 0.0, 1.715163478568653E9, 0.0, 2024-05-08 13:17:58.568
25.0, -3967.680510006012, 0.0, 0.0, 0.0, 0.0, 0.0, 0.0, 0.0, 0.09, -0.042, 0.988, 192.0, 0.0, 0.0, 0.0, 0.0, 0.0, 0.0, 0.0, 0.0, 0.0, 1.7151634785686777E9, 0.0, 2024-05-08 13:17:58.568
26.0, -3143.728154150028, 0.0, 0.0, 0.0, 0.0, 0.0, 0.0, 0.0, 0.09, -0.042, 0.988, 192.0, 0.0, 0.0, 0.0, 0.0, 0.0, 0.0, 0.0, 0.0, 0.0, 1.7151634785687027E9, 0.0, 2024-05-08 13:17:58.568
27.0, -2834.402362633033, 0.0, 0.0, 0.0, 0.0, 0.0, 0.0, 0.0, 0.09, -0.042, 0.988, 192.0, 0.0, 0.0, 0.0, 0.0, 0.0, 0.0, 0.0, 0.0, 0.0, 1.7151634785687256E9, 0.0, 2024-05-08 13:17:58.568
28.0, -3495.991646765667, 0.0, 0.0, 0.0, 0.0, 0.0, 0.0, 0.0, 0.09, -0.042, 0.988, 192.0, 0.0, 0.0, 0.0, 0.0, 0.0, 0.0, 0.0, 0.0, 0.0, 1.71516347856875E9, 0.0, 2024-05-08 13:17:58.568
29.0, -4020.452978664992, 0.0, 0.0, 0.0, 0.0, 0.0, 0.0, 0.0, 0.09, -0.042, 0.988, 192.0, 0.0, 0.0, 0.0, 0.0, 0.0, 0.0, 0.0, 0.0, 0.0, 1.715163478568774E9, 0.0, 2024-05-08 13:17:58.568
30.0, -3672.8386488960564, 0.0, 0.0, 0.0, 0.0, 0.0, 0.0, 0.0, 0.09, -0.042, 0.988, 192.0, 0.0, 0.0, 0.0, 0.0, 0.0, 0.0, 0.0, 0.0, 0.0, 1.7151634785687969E9, 0.0, 2024-05-08 13:17:58.568
31.0, -2852.9096070420273, 0.0, 0.0, 0.0, 0.0, 0.0, 0.0, 0.0, 0.09, -0.042, 0.988, 192.0, 0.0, 0.0, 0.0, 0.0, 0.0, 0.0, 0.0, 0.0, 0.0, 1.7151634785688188E9, 0.0, 2024-05-08 13:17:58.568
32.0, -2485.044596796584, 0.0, 0.0, 0.0, 0.0, 0.0, 0.0, 0.0, 0.092, -0.04, 0.988, 192.0, 2.0, 224.0, 254.0, 192.0, 30.0, 224.0, 0.0, 0.0, 0.0, 1.7151634785688422E9, 0.0, 2024-05-08 13:17:58.568
33.0, -3116.4143224256427, 0.0, 0.0, 0.0, 0.0, 0.0, 0.0, 0.0, 0.092, -0.04, 0.988, 192.0, 0.0, 0.0, 0.0, 0.0, 0.0, 0.0, 0.0, 0.0, 0.0, 1.7151634785688665E9, 0.0, 2024-05-08 13:17:58.568
34.0, -3572.859295947468, 0.0, 0.0, 0.0, 0.0, 0.0, 0.0, 0.0, 0.092, -0.04, 0.988, 192.0, 0.0, 0.0, 0.0, 0.0, 0.0, 0.0, 0.0, 0.0, 0.0, 1.715163478568888E9, 0.0, 2024-05-08 13:17:58.568
0.0, 0.0, 0.0, 0.0, 0.0, 0.0, 0.0, 0.0, 0.0, 0.092, -0.04, 0.986, 192.0, 2.0, 224.0, 254.0, 192.0, 30.0, 208.0, 0.0, 0.0, 0.0, 1.7151634786681404E9, 0.0, 2024-05-08 13:17:58.668
1.0, 5145.662146289605, 0.0, 0.0, 0.0, 0.0, 0.0, 0.0, 0.0, 0.092, -0.04, 0.986, 192.0, 0.0, 0.0, 0.0, 0.0, 0.0, 0.0, 0.0, 0.0, 0.0, 1.7151634791453617E9, 0.0, 2024-05-08 13:17:59.145
2.0, 5796.790814017155, 0.0, 0.0, 0.0, 0.0, 0.0, 0.0, 0.0, 0.092, -0.04, 0.986, 192.0, 0.0, 0.0, 0.0, 0.0, 0.0, 0.0, 0.0, 0.0, 0.0, 1.7151634791454582E9, 0.0, 2024-05-08 13:17:59.145
3.0, 5041.503017127874, 0.0, 0.0, 0.0, 0.0, 0.0, 0.0, 0.0, 0.092, -0.04, 0.986, 192.0, 0.0, 0.0, 0.0, 0.0, 0.0, 0.0, 0.0, 0.0, 0.0, 1.7151634791454961E9, 0.0, 2024-05-08 13:17:59.145
4.0, 3985.226629403428, 0.0, 0.0, 0.0, 0.0, 0.0, 0.0, 0.0, 0.092, -0.04, 0.986, 192.0, 0.0, 0.0, 0.0, 0.0, 0.0, 0.0, 0.0, 0.0, 0.0, 1.7151634791455212E9, 0.0, 2024-05-08 13:17:59.145
5.0, 3762.200923228374, 0.0, 0.0, 0.0, 0.0, 0.0, 0.0, 0.0, 0.092, -0.04, 0.986, 192.0, 0.0, 0.0, 0.0, 0.0, 0.0, 0.0, 0.0, 0.0, 0.0, 1.7151634791455462E9, 0.0, 2024-05-08 13:17:59.145
6.0, 4280.13554574675, 0.0, 0.0, 0.0, 0.0, 0.0, 0.0, 0.0, 0.092, -0.04, 0.986, 192.0, 0.0, 0.0, 0.0, 0.0, 0.0, 0.0, 0.0, 0.0, 0.0, 1.7151634791455724E9, 0.0, 2024-05-08 13:17:59.145
7.0, 4354.924482694207, 0.0, 0.0, 0.0, 0.0, 0.0, 0.0, 0.0, 0.092, -0.04, 0.986, 192.0, 0.0, 0.0, 0.0, 0.0, 0.0, 0.0, 0.0, 0.0, 0.0, 1.7151634791455972E9, 0.0, 2024-05-08 13:17:59.145
8.0, 2999.559402413297, 0.0, 0.0, 0.0, 0.0, 0.0, 0.0, 0.0, 0.08600000000000001, -0.046, 0.996, 192.0, 2.0, 176.0, 254.0, 144.0, 31.0, 32.0, 0.0, 0.0, 0.0, 1.7151634791456237E9, 0.0, 2024-05-08 13:17:59.145
9.0, 1421.6380025908952, 0.0, 0.0, 0.0, 0.0, 0.0, 0.0, 0.0, 0.08600000000000001, -0.046, 0.996, 192.0, 0.0, 0.0, 0.0, 0.0, 0.0, 0.0, 0.0, 0.0, 0.0, 1.7151634791456463E9, 0.0, 2024-05-08 13:17:59.145
10.0, 742.8378752276749, 0.0, 0.0, 0.0, 0.0, 0.0, 0.0, 0.0, 0.08600000000000001, -0.046, 0.996, 192.0, 0.0, 0.0, 0.0, 0.0, 0.0, 0.0, 0.0, 0.0, 0.0, 1.715163479145668E9, 0.0, 2024-05-08 13:17:59.145
11.0, 1020.0889134513037, 0.0, 0.0, 0.0, 0.0, 0.0, 0.0, 0.0, 0.08600000000000001, -0.046, 0.996, 192.0, 0.0, 0.0, 0.0, 0.0, 0.0, 0.0, 0.0, 0.0, 0.0, 1.7151634791456895E9, 0.0, 2024-05-08 13:17:59.145
12.0, 1036.1374659702142, 0.0, 0.0, 0.0, 0.0, 0.0, 0.0, 0.0, 0.08600000000000001, -0.046, 0.996, 192.0, 0.0, 0.0, 0.0, 0.0, 0.0, 0.0, 0.0, 0.0, 0.0, 1.7151634791457121E9, 0.0, 2024-05-08 13:17:59.145
13.0, -106.55076581844877, 0.0, 0.0, 0.0, 0.0, 0.0, 0.0, 0.0, 0.08600000000000001, -0.046, 0.996, 192.0, 0.0, 0.0, 0.0, 0.0, 0.0, 0.0, 0.0, 0.0, 0.0, 1.715163479145738E9, 0.0, 2024-05-08 13:17:59.145
14.0, -1459.0771745535344, 0.0, 0.0, 0.0, 0.0, 0.0, 0.0, 0.0, 0.08600000000000001, -0.046, 0.996, 192.0, 0.0, 0.0, 0.0, 0.0, 0.0, 0.0, 0.0, 0.0, 0.0, 1.7151634791457603E9, 0.0, 2024-05-08 13:17:59.145
15.0, -1740.6197477125822, 0.0, 0.0, 0.0, 0.0, 0.0, 0.0, 0.0, 0.08600000000000001, -0.046, 0.996, 192.0, 0.0, 0.0, 0.0, 0.0, 0.0, 0.0, 0.0, 0.0, 0.0, 1.7151634791457825E9, 0.0, 2024-05-08 13:17:59.145
16.0, -903.4798626279668, 0.0, 0.0, 0.0, 0.0, 0.0, 0.0, 0.0, 0.08600000000000001, -0.046, 0.996, 192.0, 0.0, 0.0, 0.0, 0.0, 0.0, 0.0, 0.0, 0.0, 0.0, 1.7151634791458051E9, 0.0, 2024-05-08 13:17:59.145
17.0, -217.4601218056824, 0.0, 0.0, 0.0, 0.0, 0.0, 0.0, 0.0, 0.08600000000000001, -0.046, 0.996, 192.0, 0.0, 0.0, 0.0, 0.0, 0.0, 0.0, 0.0, 0.0, 0.0, 1.715163479145828E9, 0.0, 2024-05-08 13:17:59.145
18.0, -741.5414740492671, 0.0, 0.0, 0.0, 0.0, 0.0, 0.0, 0.0, 0.092, -0.036000000000000004, 0.992, 192.0, 2.0, 224.0, 254.0, 224.0, 31.0, 0.0, 0.0, 0.0, 0.0, 1.715163479146104E9, 0.0, 2024-05-08 13:17:59.146
19.0, -1504.8758989424587, 0.0, 0.0, 0.0, 0.0, 0.0, 0.0, 0.0, 0.092, -0.036000000000000004, 0.992, 192.0, 0.0, 0.0, 0.0, 0.0, 0.0, 0.0, 0.0, 0.0, 0.0, 1.7151634791461332E9, 0.0, 2024-05-08 13:17:59.146
20.0, -1393.1395284103785, 0.0, 0.0, 0.0, 0.0, 0.0, 0.0, 0.0, 0.092, -0.036000000000000004, 0.992, 192.0, 0.0, 0.0, 0.0, 0.0, 0.0, 0.0, 0.0, 0.0, 0.0, 1.7151634791461613E9, 0.0, 2024-05-08 13:17:59.146
21.0, -386.1040337209742, 0.0, 0.0, 0.0, 0.0, 0.0, 0.0, 0.0, 0.092, -0.036000000000000004, 0.992, 192.0, 0.0, 0.0, 0.0, 0.0, 0.0, 0.0, 0.0, 0.0, 0.0, 1.7151634791461856E9, 0.0, 2024-05-08 13:17:59.146
22.0, 334.02446914010875, 0.0, 0.0, 0.0, 0.0, 0.0, 0.0, 0.0, 0.092, -0.036000000000000004, 0.992, 192.0, 0.0, 0.0, 0.0, 0.0, 0.0, 0.0, 0.0, 0.0, 0.0, 1.7151634791462102E9, 0.0, 2024-05-08 13:17:59.146
23.0, -246.5620930864922, 0.0, 0.0, 0.0, 0.0, 0.0, 0.0, 0.0, 0.092, -0.036000000000000004, 0.992, 192.0, 0.0, 0.0, 0.0, 0.0, 0.0, 0.0, 0.0, 0.0, 0.0, 1.715163479146233E9, 0.0, 2024-05-08 13:17:59.146
24.0, -1055.404669690689, 0.0, 0.0, 0.0, 0.0, 0.0, 0.0, 0.0, 0.092, -0.036000000000000004, 0.992, 192.0, 0.0, 0.0, 0.0, 0.0, 0.0, 0.0, 0.0, 0.0, 0.0, 1.715163479146279E9, 0.0, 2024-05-08 13:17:59.146
25.0, -1053.5271231564432, 0.0, 0.0, 0.0, 0.0, 0.0, 0.0, 0.0, 0.092, -0.036000000000000004, 0.992, 192.0, 0.0, 0.0, 0.0, 0.0, 0.0, 0.0, 0.0, 0.0, 0.0, 1.7151634791463053E9, 0.0, 2024-05-08 13:17:59.146
26.0, -220.65642126279133, 0.0, 0.0, 0.0, 0.0, 0.0, 0.0, 0.0, 0.092, -0.036000000000000004, 0.992, 192.0, 0.0, 0.0, 0.0, 0.0, 0.0, 0.0, 0.0, 0.0, 0.0, 1.715163479146328E9, 0.0, 2024-05-08 13:17:59.146
27.0, 217.795397972512, 0.0, 0.0, 0.0, 0.0, 0.0, 0.0, 0.0, 0.092, -0.036000000000000004, 0.992, 192.0, 0.0, 0.0, 0.0, 0.0, 0.0, 0.0, 0.0, 0.0, 0.0, 1.715163479146351E9, 0.0, 2024-05-08 13:17:59.146
28.0, -604.6370392605113, 0.0, 0.0, 0.0, 0.0, 0.0, 0.0, 0.0, 0.092, -0.038, 0.982, 192.0, 2.0, 224.0, 254.0, 208.0, 30.0, 176.0, 0.0, 0.0, 0.0, 1.715163479146374E9, 0.0, 2024-05-08 13:17:59.146
29.0, -1535.54249233514, 0.0, 0.0, 0.0, 0.0, 0.0, 0.0, 0.0, 0.092, -0.038, 0.982, 192.0, 0.0, 0.0, 0.0, 0.0, 0.0, 0.0, 0.0, 0.0, 0.0, 1.7151634791463983E9, 0.0, 2024-05-08 13:17:59.146
30.0, -1450.7846773606154, 0.0, 0.0, 0.0, 0.0, 0.0, 0.0, 0.0, 0.092, -0.038, 0.982, 192.0, 0.0, 0.0, 0.0, 0.0, 0.0, 0.0, 0.0, 0.0, 0.0, 1.7151634791464221E9, 0.0, 2024-05-08 13:17:59.146
31.0, -410.69095262181196, 0.0, 0.0, 0.0, 0.0, 0.0, 0.0, 0.0, 0.092, -0.038, 0.982, 192.0, 0.0, 0.0, 0.0, 0.0, 0.0, 0.0, 0.0, 0.0, 0.0, 1.7151634791464467E9, 0.0, 2024-05-08 13:17:59.146
32.0, 290.08093954097507, 0.0, 0.0, 0.0, 0.0, 0.0, 0.0, 0.0, 0.092, -0.038, 0.982, 192.0, 0.0, 0.0, 0.0, 0.0, 0.0, 0.0, 0.0, 0.0, 0.0, 1.71516347914647E9, 0.0, 2024-05-08 13:17:59.146
33.0, -304.274297270095, 0.0, 0.0, 0.0, 0.0, 0.0, 0.0, 0.0, 0.092, -0.038, 0.982, 192.0, 0.0, 0.0, 0.0, 0.0, 0.0, 0.0, 0.0, 0.0, 0.0, 1.715163479146492E9, 0.0, 2024-05-08 13:17:59.146
34.0, -1246.9814714171257, 0.0, 0.0, 0.0, 0.0, 0.0, 0.0, 0.0, 0.092, -0.038, 0.982, 192.0, 0.0, 0.0, 0.0, 0.0, 0.0, 0.0, 0.0, 0.0, 0.0, 1.7151634791465137E9, 0.0, 2024-05-08 13:17:59.146
35.0, -1297.8316900529494, 0.0, 0.0, 0.0, 0.0, 0.0, 0.0, 0.0, 0.092, -0.038, 0.982, 192.0, 0.0, 0.0, 0.0, 0.0, 0.0, 0.0, 0.0, 0.0, 0.0, 1.7151634791465356E9, 0.0, 2024-05-08 13:17:59.146
36.0, -408.5898886430131, 0.0, 0.0, 0.0, 0.0, 0.0, 0.0, 0.0, 0.092, -0.038, 0.982, 192.0, 0.0, 0.0, 0.0, 0.0, 0.0, 0.0, 0.0, 0.0, 0.0, 1.7151634791465752E9, 0.0, 2024-05-08 13:17:59.146
37.0, 224.94795619821028, 0.0, 0.0, 0.0, 0.0, 0.0, 0.0, 0.0, 0.092, -0.038, 0.982, 192.0, 0.0, 0.0, 0.0, 0.0, 0.0, 0.0, 0.0, 0.0, 0.0, 1.715163479146597E9, 0.0, 2024-05-08 13:17:59.146
38.0, -381.11959470744074, 0.0, 0.0, 0.0, 0.0, 0.0, 0.0, 0.0, 0.09, -0.038, 0.986, 192.0, 2.0, 208.0, 254.0, 208.0, 30.0, 208.0, 0.0, 0.0, 0.0, 1.715163479146621E9, 0.0, 2024-05-08 13:17:59.146
39.0, -1319.1999577522229, 0.0, 0.0, 0.0, 0.0, 0.0, 0.0, 0.0, 0.09, -0.038, 0.986, 192.0, 0.0, 0.0, 0.0, 0.0, 0.0, 0.0, 0.0, 0.0, 0.0, 1.7151634791466465E9, 0.0, 2024-05-08 13:17:59.146
40.0, -1419.5369386120963, 0.0, 0.0, 0.0, 0.0, 0.0, 0.0, 0.0, 0.09, -0.038, 0.986, 192.0, 0.0, 0.0, 0.0, 0.0, 0.0, 0.0, 0.0, 0.0, 0.0, 1.715163479146668E9, 0.0, 2024-05-08 13:17:59.146
41.0, -540.1075530180399, 0.0, 0.0, 0.0, 0.0, 0.0, 0.0, 0.0, 0.09, -0.038, 0.986, 192.0, 0.0, 0.0, 0.0, 0.0, 0.0, 0.0, 0.0, 0.0, 0.0, 1.7151634791466887E9, 0.0, 2024-05-08 13:17:59.146
42.0, 39.830808619357185, 0.0, 0.0, 0.0, 0.0, 0.0, 0.0, 0.0, 0.09, -0.038, 0.986, 192.0, 0.0, 0.0, 0.0, 0.0, 0.0, 0.0, 0.0, 0.0, 0.0, 1.7151634791467094E9, 0.0, 2024-05-08 13:17:59.146
43.0, -627.7710947717542, 0.0, 0.0, 0.0, 0.0, 0.0, 0.0, 0.0, 0.09, -0.038, 0.986, 192.0, 0.0, 0.0, 0.0, 0.0, 0.0, 0.0, 0.0, 0.0, 0.0, 1.7151634791467307E9, 0.0, 2024-05-08 13:17:59.146
44.0, -1603.60355420155, 0.0, 0.0, 0.0, 0.0, 0.0, 0.0, 0.0, 0.09, -0.038, 0.986, 192.0, 0.0, 0.0, 0.0, 0.0, 0.0, 0.0, 0.0, 0.0, 0.0, 1.7151634791467535E9, 0.0, 2024-05-08 13:17:59.146
45.0, -1710.9366310759344, 0.0, 0.0, 0.0, 0.0, 0.0, 0.0, 0.0, 0.09, -0.038, 0.986, 192.0, 0.0, 0.0, 0.0, 0.0, 0.0, 0.0, 0.0, 0.0, 0.0, 1.715163479146777E9, 0.0, 2024-05-08 13:17:59.146
46.0, -798.9407538104956, 0.0, 0.0, 0.0, 0.0, 0.0, 0.0, 0.0, 0.09, -0.038, 0.986, 192.0, 0.0, 0.0, 0.0, 0.0, 0.0, 0.0, 0.0, 0.0, 0.0, 1.7151634791467988E9, 0.0, 2024-05-08 13:17:59.146
47.0, -130.33302191889547, 0.0, 0.0, 0.0, 0.0, 0.0, 0.0, 0.0, 0.09, -0.038, 0.986, 192.0, 0.0, 0.0, 0.0, 0.0, 0.0, 0.0, 0.0, 0.0, 0.0, 1.7151634791468203E9, 0.0, 2024-05-08 13:17:59.146
48.0, -672.1840110044493, 0.0, 0.0, 0.0, 0.0, 0.0, 0.0, 0.0, 0.088, -0.036000000000000004, 0.986, 192.0, 2.0, 192.0, 254.0, 224.0, 30.0, 208.0, 0.0, 0.0, 0.0, 1.715163479146842E9, 0.0, 2024-05-08 13:17:59.146
49.0, -1562.4763444037849, 0.0, 0.0, 0.0, 0.0, 0.0, 0.0, 0.0, 0.088, -0.036000000000000004, 0.986, 192.0, 0.0, 0.0, 0.0, 0.0, 0.0, 0.0, 0.0, 0.0, 0.0, 1.7151634791468651E9, 0.0, 2024-05-08 13:17:59.146
50.0, -1611.2254990608096, 0.0, 0.0, 0.0, 0.0, 0.0, 0.0, 0.0, 0.088, -0.036000000000000004, 0.986, 192.0, 0.0, 0.0, 0.0, 0.0, 0.0, 0.0, 0.0, 0.0, 0.0, 1.7151634791468887E9, 0.0, 2024-05-08 13:17:59.146
51.0, -691.965304847396, 0.0, 0.0, 0.0, 0.0, 0.0, 0.0, 0.0, 0.088, -0.036000000000000004, 0.986, 192.0, 0.0, 0.0, 0.0, 0.0, 0.0, 0.0, 0.0, 0.0, 0.0, 1.7151634791469111E9, 0.0, 2024-05-08 13:17:59.146
52.0, -15.802683329902093, 0.0, 0.0, 0.0, 0.0, 0.0, 0.0, 0.0, 0.088, -0.036000000000000004, 0.986, 192.0, 0.0, 0.0, 0.0, 0.0, 0.0, 0.0, 0.0, 0.0, 0.0, 1.7151634791469364E9, 0.0, 2024-05-08 13:17:59.146
53.0, -563.3980707404698, 0.0, 0.0, 0.0, 0.0, 0.0, 0.0, 0.0, 0.088, -0.036000000000000004, 0.986, 192.0, 0.0, 0.0, 0.0, 0.0, 0.0, 0.0, 0.0, 0.0, 0.0, 1.7151634791469843E9, 0.0, 2024-05-08 13:17:59.146
54.0, -1518.8233874825703, 0.0, 0.0, 0.0, 0.0, 0.0, 0.0, 0.0, 0.088, -0.036000000000000004, 0.986, 192.0, 0.0, 0.0, 0.0, 0.0, 0.0, 0.0, 0.0, 0.0, 0.0, 1.7151634791470127E9, 0.0, 2024-05-08 13:17:59.147
55.0, -1684.8074418076806, 0.0, 0.0, 0.0, 0.0, 0.0, 0.0, 0.0, 0.088, -0.036000000000000004, 0.986, 192.0, 0.0, 0.0, 0.0, 0.0, 0.0, 0.0, 0.0, 0.0, 0.0, 1.7151634791470356E9, 0.0, 2024-05-08 13:17:59.147
56.0, -929.117313518204, 0.0, 0.0, 0.0, 0.0, 0.0, 0.0, 0.0, 0.088, -0.036000000000000004, 0.986, 192.0, 0.0, 0.0, 0.0, 0.0, 0.0, 0.0, 0.0, 0.0, 0.0, 1.7151634791470585E9, 0.0, 2024-05-08 13:17:59.147
57.0, -311.67272468480166, 0.0, 0.0, 0.0, 0.0, 0.0, 0.0, 0.0, 0.084, -0.04, 0.986, 192.0, 2.0, 160.0, 254.0, 192.0, 30.0, 208.0, 0.0, 0.0, 0.0, 1.71516347914713E9, 0.0, 2024-05-08 13:17:59.147
58.0, -1004.2862301214017, 0.0, 0.0, 0.0, 0.0, 0.0, 0.0, 0.0, 0.084, -0.04, 0.986, 192.0, 0.0, 0.0, 0.0, 0.0, 0.0, 0.0, 0.0, 0.0, 0.0, 1.7151634791471574E9, 0.0, 2024-05-08 13:17:59.147
59.0, -2146.259206087495, 0.0, 0.0, 0.0, 0.0, 0.0, 0.0, 0.0, 0.084, -0.04, 0.986, 192.0, 0.0, 0.0, 0.0, 0.0, 0.0, 0.0, 0.0, 0.0, 0.0, 1.7151634791471846E9, 0.0, 2024-05-08 13:17:59.147
60.0, -2421.05155242104, 0.0, 0.0, 0.0, 0.0, 0.0, 0.0, 0.0, 0.084, -0.04, 0.986, 192.0, 0.0, 0.0, 0.0, 0.0, 0.0, 0.0, 0.0, 0.0, 0.0, 1.715163479147211E9, 0.0, 2024-05-08 13:17:59.147
61.0, -1641.5121127977507, 0.0, 0.0, 0.0, 0.0, 0.0, 0.0, 0.0, 0.084, -0.04, 0.986, 192.0, 0.0, 0.0, 0.0, 0.0, 0.0, 0.0, 0.0, 0.0, 0.0, 1.7151634791472354E9, 0.0, 2024-05-08 13:17:59.147
62.0, -1080.304513013901, 0.0, 0.0, 0.0, 0.0, 0.0, 0.0, 0.0, 0.084, -0.04, 0.986, 192.0, 0.0, 0.0, 0.0, 0.0, 0.0, 0.0, 0.0, 0.0, 0.0, 1.715163479147257E9, 0.0, 2024-05-08 13:17:59.147
63.0, -1745.2018553259202, 0.0, 0.0, 0.0, 0.0, 0.0, 0.0, 0.0, 0.084, -0.04, 0.986, 192.0, 0.0, 0.0, 0.0, 0.0, 0.0, 0.0, 0.0, 0.0, 0.0, 1.71516347914728E9, 0.0, 2024-05-08 13:17:59.147
64.0, -2831.474284109388, 0.0, 0.0, 0.0, 0.0, 0.0, 0.0, 0.0, 0.084, -0.04, 0.986, 192.0, 0.0, 0.0, 0.0, 0.0, 0.0, 0.0, 0.0, 0.0, 0.0, 1.715163479147302E9, 0.0, 2024-05-08 13:17:59.147
65.0, -3089.8380982682825, 0.0, 0.0, 0.0, 0.0, 0.0, 0.0, 0.0, 0.084, -0.04, 0.986, 192.0, 0.0, 0.0, 0.0, 0.0, 0.0, 0.0, 0.0, 0.0, 0.0, 1.7151634791473224E9, 0.0, 2024-05-08 13:17:59.147
66.0, -2284.2588763545605, 0.0, 0.0, 0.0, 0.0, 0.0, 0.0, 0.0, 0.084, -0.04, 0.986, 192.0, 0.0, 0.0, 0.0, 0.0, 0.0, 0.0, 0.0, 0.0, 0.0, 1.715163479147343E9, 0.0, 2024-05-08 13:17:59.147
67.0, -1710.6684101424707, 0.0, 0.0, 0.0, 0.0, 0.0, 0.0, 0.0, 0.082, -0.044, 0.988, 192.0, 2.0, 144.0, 254.0, 160.0, 30.0, 224.0, 0.0, 0.0, 0.0, 1.7151634791473637E9, 0.0, 2024-05-08 13:17:59.147
68.0, -2382.6736071912774, 0.0, 0.0, 0.0, 0.0, 0.0, 0.0, 0.0, 0.082, -0.044, 0.988, 192.0, 0.0, 0.0, 0.0, 0.0, 0.0, 0.0, 0.0, 0.0, 0.0, 1.7151634791473851E9, 0.0, 2024-05-08 13:17:59.147
69.0, -3458.7983439920363, 0.0, 0.0, 0.0, 0.0, 0.0, 0.0, 0.0, 0.082, -0.044, 0.988, 192.0, 0.0, 0.0, 0.0, 0.0, 0.0, 0.0, 0.0, 0.0, 0.0, 1.7151634791474087E9, 0.0, 2024-05-08 13:17:59.147
70.0, -3632.761971087691, 0.0, 0.0, 0.0, 0.0, 0.0, 0.0, 0.0, 0.082, -0.044, 0.988, 192.0, 0.0, 0.0, 0.0, 0.0, 0.0, 0.0, 0.0, 0.0, 0.0, 1.715163479147431E9, 0.0, 2024-05-08 13:17:59.147
71.0, -2721.8836810450175, 0.0, 0.0, 0.0, 0.0, 0.0, 0.0, 0.0, 0.082, -0.044, 0.988, 192.0, 0.0, 0.0, 0.0, 0.0, 0.0, 0.0, 0.0, 0.0, 0.0, 1.7151634791474955E9, 0.0, 2024-05-08 13:17:59.147
72.0, -2035.5063123114483, 0.0, 0.0, 0.0, 0.0, 0.0, 0.0, 0.0, 0.082, -0.044, 0.988, 192.0, 0.0, 0.0, 0.0, 0.0, 0.0, 0.0, 0.0, 0.0, 0.0, 1.7151634791475182E9, 0.0, 2024-05-08 13:17:59.147
73.0, -2565.8908564914295, 0.0, 0.0, 0.0, 0.0, 0.0, 0.0, 0.0, 0.082, -0.044, 0.988, 192.0, 0.0, 0.0, 0.0, 0.0, 0.0, 0.0, 0.0, 0.0, 0.0, 1.71516347914754E9, 0.0, 2024-05-08 13:17:59.147
74.0, -3574.9380081818117, 0.0, 0.0, 0.0, 0.0, 0.0, 0.0, 0.0, 0.082, -0.044, 0.988, 192.0, 0.0, 0.0, 0.0, 0.0, 0.0, 0.0, 0.0, 0.0, 0.0, 1.715163479147572E9, 0.0, 2024-05-08 13:17:59.147
75.0, -3729.634431556992, 0.0, 0.0, 0.0, 0.0, 0.0, 0.0, 0.0, 0.082, -0.044, 0.988, 192.0, 0.0, 0.0, 0.0, 0.0, 0.0, 0.0, 0.0, 0.0, 0.0, 1.7151634791475995E9, 0.0, 2024-05-08 13:17:59.147
76.0, -2833.731810299374, 0.0, 0.0, 0.0, 0.0, 0.0, 0.0, 0.0, 0.082, -0.044, 0.988, 192.0, 0.0, 0.0, 0.0, 0.0, 0.0, 0.0, 0.0, 0.0, 0.0, 1.7151634791476212E9, 0.0, 2024-05-08 13:17:59.147
77.0, -2118.028952840442, 0.0, 0.0, 0.0, 0.0, 0.0, 0.0, 0.0, 0.09, -0.046, 0.99, 192.0, 2.0, 208.0, 254.0, 144.0, 30.0, 240.0, 0.0, 0.0, 0.0, 1.7151634791476433E9, 0.0, 2024-05-08 13:17:59.147
78.0, -2629.816845633608, 0.0, 0.0, 0.0, 0.0, 0.0, 0.0, 0.0, 0.09, -0.046, 0.99, 192.0, 0.0, 0.0, 0.0, 0.0, 0.0, 0.0, 0.0, 0.0, 0.0, 1.7151634791476665E9, 0.0, 2024-05-08 13:17:59.147
79.0, -3620.6249738484594, 0.0, 0.0, 0.0, 0.0, 0.0, 0.0, 0.0, 0.09, -0.046, 0.99, 192.0, 0.0, 0.0, 0.0, 0.0, 0.0, 0.0, 0.0, 0.0, 0.0, 1.7151634791476889E9, 0.0, 2024-05-08 13:17:59.147
80.0, -3715.7987017391565, 0.0, 0.0, 0.0, 0.0, 0.0, 0.0, 0.0, 0.09, -0.046, 0.99, 192.0, 0.0, 0.0, 0.0, 0.0, 0.0, 0.0, 0.0, 0.0, 0.0, 1.7151634791477103E9, 0.0, 2024-05-08 13:17:59.147
81.0, -2787.9107341659947, 0.0, 0.0, 0.0, 0.0, 0.0, 0.0, 0.0, 0.09, -0.046, 0.99, 192.0, 0.0, 0.0, 0.0, 0.0, 0.0, 0.0, 0.0, 0.0, 0.0, 1.7151634791477327E9, 0.0, 2024-05-08 13:17:59.147
82.0, -2012.416960289116, 0.0, 0.0, 0.0, 0.0, 0.0, 0.0, 0.0, 0.09, -0.046, 0.99, 192.0, 0.0, 0.0, 0.0, 0.0, 0.0, 0.0, 0.0, 0.0, 0.0, 1.715163479147755E9, 0.0, 2024-05-08 13:17:59.147
83.0, -2479.948399060774, 0.0, 0.0, 0.0, 0.0, 0.0, 0.0, 0.0, 0.09, -0.046, 0.99, 192.0, 0.0, 0.0, 0.0, 0.0, 0.0, 0.0, 0.0, 0.0, 0.0, 1.7151634791477764E9, 0.0, 2024-05-08 13:17:59.147
84.0, -3457.054907924522, 0.0, 0.0, 0.0, 0.0, 0.0, 0.0, 0.0, 0.09, -0.046, 0.99, 192.0, 0.0, 0.0, 0.0, 0.0, 0.0, 0.0, 0.0, 0.0, 0.0, 1.715163479147798E9, 0.0, 2024-05-08 13:17:59.147
85.0, -3627.017572762677, 0.0, 0.0, 0.0, 0.0, 0.0, 0.0, 0.0, 0.09, -0.046, 0.99, 192.0, 0.0, 0.0, 0.0, 0.0, 0.0, 0.0, 0.0, 0.0, 0.0, 1.71516347914782E9, 0.0, 2024-05-08 13:17:59.147
86.0, -2689.2724858847246, 0.0, 0.0, 0.0, 0.0, 0.0, 0.0, 0.0, 0.09, -0.046, 0.99, 192.0, 0.0, 0.0, 0.0, 0.0, 0.0, 0.0, 0.0, 0.0, 0.0, 1.715163479147842E9, 0.0, 2024-05-08 13:17:59.147
87.0, -1924.9322324910443, 0.0, 0.0, 0.0, 0.0, 0.0, 0.0, 0.0, 0.09, -0.042, 0.986, 192.0, 2.0, 208.0, 254.0, 176.0, 30.0, 208.0, 0.0, 0.0, 0.0, 1.7151634791478636E9, 0.0, 2024-05-08 13:17:59.147
88.0, -2410.14390112685, 0.0, 0.0, 0.0, 0.0, 0.0, 0.0, 0.0, 0.09, -0.042, 0.986, 192.0, 0.0, 0.0, 0.0, 0.0, 0.0, 0.0, 0.0, 0.0, 0.0, 1.7151634791479108E9, 0.0, 2024-05-08 13:17:59.147
89.0, -3434.0549628800113, 0.0, 0.0, 0.0, 0.0, 0.0, 0.0, 0.0, 0.09, -0.042, 0.986, 192.0, 0.0, 0.0, 0.0, 0.0, 0.0, 0.0, 0.0, 0.0, 0.0, 1.7151634791479328E9, 0.0, 2024-05-08 13:17:59.147
90.0, -3631.4208664203725, 0.0, 0.0, 0.0, 0.0, 0.0, 0.0, 0.0, 0.09, -0.042, 0.986, 192.0, 0.0, 0.0, 0.0, 0.0, 0.0, 0.0, 0.0, 0.0, 0.0, 1.7151634791479545E9, 0.0, 2024-05-08 13:17:59.147
91.0, -2694.480442342811, 0.0, 0.0, 0.0, 0.0, 0.0, 0.0, 0.0, 0.09, -0.042, 0.986, 192.0, 0.0, 0.0, 0.0, 0.0, 0.0, 0.0, 0.0, 0.0, 0.0, 1.7151634791479764E9, 0.0, 2024-05-08 13:17:59.147
92.0, -1840.5767489167154, 0.0, 0.0, 0.0, 0.0, 0.0, 0.0, 0.0, 0.09, -0.042, 0.986, 192.0, 0.0, 0.0, 0.0, 0.0, 0.0, 0.0, 0.0, 0.0, 0.0, 1.7151634791479993E9, 0.0, 2024-05-08 13:17:59.147
93.0, -2234.4144862192256, 0.0, 0.0, 0.0, 0.0, 0.0, 0.0, 0.0, 0.09, -0.042, 0.986, 192.0, 0.0, 0.0, 0.0, 0.0, 0.0, 0.0, 0.0, 0.0, 0.0, 1.7151634791480205E9, 0.0, 2024-05-08 13:17:59.148
94.0, -3140.777723881927, 0.0, 0.0, 0.0, 0.0, 0.0, 0.0, 0.0, 0.09, -0.042, 0.986, 192.0, 0.0, 0.0, 0.0, 0.0, 0.0, 0.0, 0.0, 0.0, 0.0, 1.7151634791480446E9, 0.0, 2024-05-08 13:17:59.148
95.0, -3242.2769954534765, 0.0, 0.0, 0.0, 0.0, 0.0, 0.0, 0.0, 0.09, -0.042, 0.986, 192.0, 0.0, 0.0, 0.0, 0.0, 0.0, 0.0, 0.0, 0.0, 0.0, 1.715163479148108E9, 0.0, 2024-05-08 13:17:59.148
96.0, -2253.1675998172286, 0.0, 0.0, 0.0, 0.0, 0.0, 0.0, 0.0, 0.09, -0.042, 0.986, 192.0, 0.0, 0.0, 0.0, 0.0, 0.0, 0.0, 0.0, 0.0, 0.0, 1.7151634791481297E9, 0.0, 2024-05-08 13:17:59.148
97.0, -1399.8227000025154, 0.0, 0.0, 0.0, 0.0, 0.0, 0.0, 0.0, 0.09, -0.04, 0.986, 192.0, 2.0, 208.0, 254.0, 192.0, 30.0, 208.0, 0.0, 0.0, 0.0, 1.7151634791481507E9, 0.0, 2024-05-08 13:17:59.148
98.0, -1765.5195910357943, 0.0, 0.0, 0.0, 0.0, 0.0, 0.0, 0.0, 0.09, -0.04, 0.986, 192.0, 0.0, 0.0, 0.0, 0.0, 0.0, 0.0, 0.0, 0.0, 0.0, 1.7151634791481729E9, 0.0, 2024-05-08 13:17:59.148
99.0, -2745.934158078928, 0.0, 0.0, 0.0, 0.0, 0.0, 0.0, 0.0, 0.09, -0.04, 0.986, 192.0, 0.0, 0.0, 0.0, 0.0, 0.0, 0.0, 0.0, 0.0, 0.0, 1.7151634791481955E9, 0.0, 2024-05-08 13:17:59.148
100.0, -2930.738381235407, 0.0, 0.0, 0.0, 0.0, 0.0, 0.0, 0.0, 0.09, -0.04, 0.986, 192.0, 0.0, 0.0, 0.0, 0.0, 0.0, 0.0, 0.0, 0.0, 0.0, 1.7151634791482203E9, 0.0, 2024-05-08 13:17:59.148
101.0, -1997.5083467374263, 0.0, 0.0, 0.0, 0.0, 0.0, 0.0, 0.0, 0.09, -0.04, 0.986, 192.0, 0.0, 0.0, 0.0, 0.0, 0.0, 0.0, 0.0, 0.0, 0.0, 1.7151634791482427E9, 0.0, 2024-05-08 13:17:59.148
102.0, -1171.3878716692773, 0.0, 0.0, 0.0, 0.0, 0.0, 0.0, 0.0, 0.09, -0.04, 0.986, 192.0, 0.0, 0.0, 0.0, 0.0, 0.0, 0.0, 0.0, 0.0, 0.0, 1.715163479148265E9, 0.0, 2024-05-08 13:17:59.148
103.0, -1545.7348878067598, 0.0, 0.0, 0.0, 0.0, 0.0, 0.0, 0.0, 0.09, -0.04, 0.986, 192.0, 0.0, 0.0, 0.0, 0.0, 0.0, 0.0, 0.0, 0.0, 0.0, 1.715163479148288E9, 0.0, 2024-05-08 13:17:59.148
104.0, -2459.9882912621847, 0.0, 0.0, 0.0, 0.0, 0.0, 0.0, 0.0, 0.09, -0.04, 0.986, 192.0, 0.0, 0.0, 0.0, 0.0, 0.0, 0.0, 0.0, 0.0, 0.0, 1.7151634791483104E9, 0.0, 2024-05-08 13:17:59.148
105.0, -2635.7624096587197, 0.0, 0.0, 0.0, 0.0, 0.0, 0.0, 0.0, 0.09, -0.04, 0.986, 192.0, 0.0, 0.0, 0.0, 0.0, 0.0, 0.0, 0.0, 0.0, 0.0, 1.7151634791483345E9, 0.0, 2024-05-08 13:17:59.148
106.0, -1673.3857003910186, 0.0, 0.0, 0.0, 0.0, 0.0, 0.0, 0.0, 0.09, -0.04, 0.986, 192.0, 0.0, 0.0, 0.0, 0.0, 0.0, 0.0, 0.0, 0.0, 0.0, 1.715163479148426E9, 0.0, 2024-05-08 13:17:59.148
107.0, -796.5491171537778, 0.0, 0.0, 0.0, 0.0, 0.0, 0.0, 0.0, 0.088, -0.04, 0.984, 192.0, 2.0, 192.0, 254.0, 192.0, 30.0, 192.0, 0.0, 0.0, 0.0, 1.7151634791484487E9, 0.0, 2024-05-08 13:17:59.148
108.0, -1119.1518448772247, 0.0, 0.0, 0.0, 0.0, 0.0, 0.0, 0.0, 0.088, -0.04, 0.984, 192.0, 0.0, 0.0, 0.0, 0.0, 0.0, 0.0, 0.0, 0.0, 0.0, 1.7151634791484723E9, 0.0, 2024-05-08 13:17:59.148
109.0, -2057.3439666442832, 0.0, 0.0, 0.0, 0.0, 0.0, 0.0, 0.0, 0.088, -0.04, 0.984, 192.0, 0.0, 0.0, 0.0, 0.0, 0.0, 0.0, 0.0, 0.0, 0.0, 1.7151634791485E9, 0.0, 2024-05-08 13:17:59.148
110.0, -2255.6486434517674, 0.0, 0.0, 0.0, 0.0, 0.0, 0.0, 0.0, 0.088, -0.04, 0.984, 192.0, 0.0, 0.0, 0.0, 0.0, 0.0, 0.0, 0.0, 0.0, 0.0, 1.715163479148522E9, 0.0, 2024-05-08 13:17:59.148
111.0, -1302.033818010547, 0.0, 0.0, 0.0, 0.0, 0.0, 0.0, 0.0, 0.088, -0.04, 0.984, 192.0, 0.0, 0.0, 0.0, 0.0, 0.0, 0.0, 0.0, 0.0, 0.0, 1.7151634791485436E9, 0.0, 2024-05-08 13:17:59.148
112.0, -429.7122871532783, 0.0, 0.0, 0.0, 0.0, 0.0, 0.0, 0.0, 0.088, -0.04, 0.984, 192.0, 0.0, 0.0, 0.0, 0.0, 0.0, 0.0, 0.0, 0.0, 0.0, 1.7151634791485655E9, 0.0, 2024-05-08 13:17:59.148
113.0, -790.670608362032, 0.0, 0.0, 0.0, 0.0, 0.0, 0.0, 0.0, 0.088, -0.04, 0.984, 192.0, 0.0, 0.0, 0.0, 0.0, 0.0, 0.0, 0.0, 0.0, 0.0, 1.7151634791485903E9, 0.0, 2024-05-08 13:17:59.148
114.0, -1811.6088881026374, 0.0, 0.0, 0.0, 0.0, 0.0, 0.0, 0.0, 0.088, -0.04, 0.984, 192.0, 0.0, 0.0, 0.0, 0.0, 0.0, 0.0, 0.0, 0.0, 0.0, 1.715163479148615E9, 0.0, 2024-05-08 13:17:59.148
115.0, -2007.1866520865742, 0.0, 0.0, 0.0, 0.0, 0.0, 0.0, 0.0, 0.088, -0.04, 0.984, 192.0, 0.0, 0.0, 0.0, 0.0, 0.0, 0.0, 0.0, 0.0, 0.0, 1.715163479148637E9, 0.0, 2024-05-08 13:17:59.148
116.0, -1078.4493182241104, 0.0, 0.0, 0.0, 0.0, 0.0, 0.0, 0.0, 0.088, -0.04, 0.984, 192.0, 0.0, 0.0, 0.0, 0.0, 0.0, 0.0, 0.0, 0.0, 0.0, 1.7151634791486588E9, 0.0, 2024-05-08 13:17:59.148
117.0, -250.47364836617095, 0.0, 0.0, 0.0, 0.0, 0.0, 0.0, 0.0, 0.09, -0.042, 0.986, 192.0, 2.0, 208.0, 254.0, 176.0, 30.0, 208.0, 0.0, 0.0, 0.0, 1.7151634791486835E9, 0.0, 2024-05-08 13:17:59.148
118.0, -616.036428932718, 0.0, 0.0, 0.0, 0.0, 0.0, 0.0, 0.0, 0.09, -0.042, 0.986, 192.0, 0.0, 0.0, 0.0, 0.0, 0.0, 0.0, 0.0, 0.0, 0.0, 1.715163479148707E9, 0.0, 2024-05-08 13:17:59.148
119.0, -1674.0115492357672, 0.0, 0.0, 0.0, 0.0, 0.0, 0.0, 0.0, 0.09, -0.042, 0.986, 192.0, 0.0, 0.0, 0.0, 0.0, 0.0, 0.0, 0.0, 0.0, 0.0, 1.715163479148731E9, 0.0, 2024-05-08 13:17:59.148
120.0, -2007.4325212755825, 0.0, 0.0, 0.0, 0.0, 0.0, 0.0, 0.0, 0.09, -0.042, 0.986, 192.0, 0.0, 0.0, 0.0, 0.0, 0.0, 0.0, 0.0, 0.0, 0.0, 1.7151634791487527E9, 0.0, 2024-05-08 13:17:59.148
121.0, -1184.2401247310788, 0.0, 0.0, 0.0, 0.0, 0.0, 0.0, 0.0, 0.09, -0.042, 0.986, 192.0, 0.0, 0.0, 0.0, 0.0, 0.0, 0.0, 0.0, 0.0, 0.0, 1.7151634796247227E9, 0.0, 2024-05-08 13:17:59.624
122.0, -458.009595633697, 0.0, 0.0, 0.0, 0.0, 0.0, 0.0, 0.0, 0.09, -0.042, 0.986, 192.0, 0.0, 0.0, 0.0, 0.0, 0.0, 0.0, 0.0, 0.0, 0.0, 1.715163479624787E9, 0.0, 2024-05-08 13:17:59.624
123.0, -915.1921767225476, 0.0, 0.0, 0.0, 0.0, 0.0, 0.0, 0.0, 0.09, -0.042, 0.986, 192.0, 0.0, 0.0, 0.0, 0.0, 0.0, 0.0, 0.0, 0.0, 0.0, 1.7151634796248548E9, 0.0, 2024-05-08 13:17:59.624
124.0, -2010.807634688334, 0.0, 0.0, 0.0, 0.0, 0.0, 0.0, 0.0, 0.09, -0.042, 0.986, 192.0, 0.0, 0.0, 0.0, 0.0, 0.0, 0.0, 0.0, 0.0, 0.0, 1.7151634796248848E9, 0.0, 2024-05-08 13:17:59.624
125.0, -2398.431587032269, 0.0, 0.0, 0.0, 0.0, 0.0, 0.0, 0.0, 0.09, -0.042, 0.986, 192.0, 0.0, 0.0, 0.0, 0.0, 0.0, 0.0, 0.0, 0.0, 0.0, 1.7151634796249154E9, 0.0, 2024-05-08 13:17:59.624
126.0, -1617.953374141857, 0.0, 0.0, 0.0, 0.0, 0.0, 0.0, 0.0, 0.09, -0.042, 0.986, 192.0, 0.0, 0.0, 0.0, 0.0, 0.0, 0.0, 0.0, 0.0, 0.0, 1.7151634796249335E9, 0.0, 2024-05-08 13:17:59.624
127.0, -867.2700366103693, 0.0, 0.0, 0.0, 0.0, 0.0, 0.0, 0.0, 0.09, -0.036000000000000004, 0.984, 192.0, 2.0, 208.0, 254.0, 224.0, 30.0, 192.0, 0.0, 0.0, 0.0, 1.7151634796249516E9, 0.0, 2024-05-08 13:17:59.624
128.0, -1296.9152685302818, 0.0, 0.0, 0.0, 0.0, 0.0, 0.0, 0.0, 0.09, -0.036000000000000004, 0.984, 192.0, 0.0, 0.0, 0.0, 0.0, 0.0, 0.0, 0.0, 0.0, 0.0, 1.715163479624971E9, 0.0, 2024-05-08 13:17:59.624
129.0, -2457.0602127385396, 0.0, 0.0, 0.0, 0.0, 0.0, 0.0, 0.0, 0.09, -0.036000000000000004, 0.984, 192.0, 0.0, 0.0, 0.0, 0.0, 0.0, 0.0, 0.0, 0.0, 0.0, 1.7151634796249888E9, 0.0, 2024-05-08 13:17:59.624
130.0, -2833.9106242550165, 0.0, 0.0, 0.0, 0.0, 0.0, 0.0, 0.0, 0.09, -0.036000000000000004, 0.984, 192.0, 0.0, 0.0, 0.0, 0.0, 0.0, 0.0, 0.0, 0.0, 0.0, 1.715163479625007E9, 0.0, 2024-05-08 13:17:59.625
131.0, -1996.6589804481246, 0.0, 0.0, 0.0, 0.0, 0.0, 0.0, 0.0, 0.09, -0.036000000000000004, 0.984, 192.0, 0.0, 0.0, 0.0, 0.0, 0.0, 0.0, 0.0, 0.0, 0.0, 1.7151634796250253E9, 0.0, 2024-05-08 13:17:59.625
132.0, -1257.2856256110222, 0.0, 0.0, 0.0, 0.0, 0.0, 0.0, 0.0, 0.09, -0.036000000000000004, 0.984, 192.0, 0.0, 0.0, 0.0, 0.0, 0.0, 0.0, 0.0, 0.0, 0.0, 1.715163479625043E9, 0.0, 2024-05-08 13:17:59.625
133.0, -1668.468316610851, 0.0, 0.0, 0.0, 0.0, 0.0, 0.0, 0.0, 0.09, -0.036000000000000004, 0.984, 192.0, 0.0, 0.0, 0.0, 0.0, 0.0, 0.0, 0.0, 0.0, 0.0, 1.7151634796250606E9, 0.0, 2024-05-08 13:17:59.625
134.0, -2794.3703883135786, 0.0, 0.0, 0.0, 0.0, 0.0, 0.0, 0.0, 0.09, -0.036000000000000004, 0.984, 192.0, 0.0, 0.0, 0.0, 0.0, 0.0, 0.0, 0.0, 0.0, 0.0, 1.7151634796250784E9, 0.0, 2024-05-08 13:17:59.625
135.0, -3200.814509488882, 0.0, 0.0, 0.0, 0.0, 0.0, 0.0, 0.0, 0.09, -0.036000000000000004, 0.984, 192.0, 0.0, 0.0, 0.0, 0.0, 0.0, 0.0, 0.0, 0.0, 0.0, 1.7151634796251647E9, 0.0, 2024-05-08 13:17:59.625
136.0, -2444.8114567770313, 0.0, 0.0, 0.0, 0.0, 0.0, 0.0, 0.0, 0.09, -0.036000000000000004, 0.984, 192.0, 0.0, 0.0, 0.0, 0.0, 0.0, 0.0, 0.0, 0.0, 0.0, 1.7151634796251955E9, 0.0, 2024-05-08 13:17:59.625
137.0, -1693.658732611982, 0.0, 0.0, 0.0, 0.0, 0.0, 0.0, 0.0, 0.092, -0.036000000000000004, 0.984, 192.0, 2.0, 224.0, 254.0, 224.0, 30.0, 192.0, 0.0, 0.0, 0.0, 1.7151634796252153E9, 0.0, 2024-05-08 13:17:59.625
138.0, -2092.9502955615876, 0.0, 0.0, 0.0, 0.0, 0.0, 0.0, 0.0, 0.092, -0.036000000000000004, 0.984, 192.0, 0.0, 0.0, 0.0, 0.0, 0.0, 0.0, 0.0, 0.0, 0.0, 1.715163479625238E9, 0.0, 2024-05-08 13:17:59.625
139.0, -3226.4072568902084, 0.0, 0.0, 0.0, 0.0, 0.0, 0.0, 0.0, 0.092, -0.036000000000000004, 0.984, 192.0, 0.0, 0.0, 0.0, 0.0, 0.0, 0.0, 0.0, 0.0, 0.0, 1.715163479625255E9, 0.0, 2024-05-08 13:17:59.625
140.0, -3613.539470856127, 0.0, 0.0, 0.0, 0.0, 0.0, 0.0, 0.0, 0.092, -0.036000000000000004, 0.984, 192.0, 0.0, 0.0, 0.0, 0.0, 0.0, 0.0, 0.0, 0.0, 0.0, 1.7151634796252725E9, 0.0, 2024-05-08 13:17:59.625
141.0, -2808.899022209528, 0.0, 0.0, 0.0, 0.0, 0.0, 0.0, 0.0, 0.092, -0.036000000000000004, 0.984, 192.0, 0.0, 0.0, 0.0, 0.0, 0.0, 0.0, 0.0, 0.0, 0.0, 1.71516347962531E9, 0.0, 2024-05-08 13:17:59.625
142.0, -2007.3207625533062, 0.0, 0.0, 0.0, 0.0, 0.0, 0.0, 0.0, 0.092, -0.036000000000000004, 0.984, 192.0, 0.0, 0.0, 0.0, 0.0, 0.0, 0.0, 0.0, 0.0, 0.0, 1.7151634796253276E9, 0.0, 2024-05-08 13:17:59.625
143.0, -2359.0254615575627, 0.0, 0.0, 0.0, 0.0, 0.0, 0.0, 0.0, 0.092, -0.036000000000000004, 0.984, 192.0, 0.0, 0.0, 0.0, 0.0, 0.0, 0.0, 0.0, 0.0, 0.0, 1.7151634796253448E9, 0.0, 2024-05-08 13:17:59.625
144.0, -3453.2104078782095, 0.0, 0.0, 0.0, 0.0, 0.0, 0.0, 0.0, 0.092, -0.036000000000000004, 0.984, 192.0, 0.0, 0.0, 0.0, 0.0, 0.0, 0.0, 0.0, 0.0, 0.0, 1.7151634796253638E9, 0.0, 2024-05-08 13:17:59.625
145.0, -3827.847996693611, 0.0, 0.0, 0.0, 0.0, 0.0, 0.0, 0.0, 0.092, -0.036000000000000004, 0.984, 192.0, 0.0, 0.0, 0.0, 0.0, 0.0, 0.0, 0.0, 0.0, 0.0, 1.715163479625381E9, 0.0, 2024-05-08 13:17:59.625
146.0, -3036.931519142571, 0.0, 0.0, 0.0, 0.0, 0.0, 0.0, 0.0, 0.092, -0.036000000000000004, 0.984, 192.0, 0.0, 0.0, 0.0, 0.0, 0.0, 0.0, 0.0, 0.0, 0.0, 1.7151634796253982E9, 0.0, 2024-05-08 13:17:59.625
147.0, -2173.058947689408, 0.0, 0.0, 0.0, 0.0, 0.0, 0.0, 0.0, 0.09, -0.036000000000000004, 0.986, 192.0, 2.0, 208.0, 254.0, 224.0, 30.0, 208.0, 0.0, 0.0, 0.0, 1.7151634796254156E9, 0.0, 2024-05-08 13:17:59.625
148.0, -2479.6131228939444, 0.0, 0.0, 0.0, 0.0, 0.0, 0.0, 0.0, 0.09, -0.036000000000000004, 0.986, 192.0, 0.0, 0.0, 0.0, 0.0, 0.0, 0.0, 0.0, 0.0, 0.0, 1.7151634796254337E9, 0.0, 2024-05-08 13:17:59.625
149.0, -3547.4230107573285, 0.0, 0.0, 0.0, 0.0, 0.0, 0.0, 0.0, 0.09, -0.036000000000000004, 0.986, 192.0, 0.0, 0.0, 0.0, 0.0, 0.0, 0.0, 0.0, 0.0, 0.0, 1.715163479625451E9, 0.0, 2024-05-08 13:17:59.625
150.0, -3910.884727345077, 0.0, 0.0, 0.0, 0.0, 0.0, 0.0, 0.0, 0.09, -0.036000000000000004, 0.986, 192.0, 0.0, 0.0, 0.0, 0.0, 0.0, 0.0, 0.0, 0.0, 0.0, 1.7151634796254706E9, 0.0, 2024-05-08 13:17:59.625
151.0, -3049.940234415559, 0.0, 0.0, 0.0, 0.0, 0.0, 0.0, 0.0, 0.09, -0.036000000000000004, 0.986, 192.0, 0.0, 0.0, 0.0, 0.0, 0.0, 0.0, 0.0, 0.0, 0.0, 1.715163479625488E9, 0.0, 2024-05-08 13:17:59.625
152.0, -2137.4302670276484, 0.0, 0.0, 0.0, 0.0, 0.0, 0.0, 0.0, 0.09, -0.036000000000000004, 0.986, 192.0, 0.0, 0.0, 0.0, 0.0, 0.0, 0.0, 0.0, 0.0, 0.0, 1.7151634796255052E9, 0.0, 2024-05-08 13:17:59.625
153.0, -2414.4801395511795, 0.0, 0.0, 0.0, 0.0, 0.0, 0.0, 0.0, 0.09, -0.036000000000000004, 0.986, 192.0, 0.0, 0.0, 0.0, 0.0, 0.0, 0.0, 0.0, 0.0, 0.0, 1.7151634796255229E9, 0.0, 2024-05-08 13:17:59.625
154.0, -3430.188111089243, 0.0, 0.0, 0.0, 0.0, 0.0, 0.0, 0.0, 0.09, -0.036000000000000004, 0.986, 192.0, 0.0, 0.0, 0.0, 0.0, 0.0, 0.0, 0.0, 0.0, 0.0, 1.7151634796255403E9, 0.0, 2024-05-08 13:17:59.625
155.0, -3765.6430918744913, 0.0, 0.0, 0.0, 0.0, 0.0, 0.0, 0.0, 0.09, -0.036000000000000004, 0.986, 192.0, 0.0, 0.0, 0.0, 0.0, 0.0, 0.0, 0.0, 0.0, 0.0, 1.715163479625558E9, 0.0, 2024-05-08 13:17:59.625
156.0, -2936.8404074717055, 0.0, 0.0, 0.0, 0.0, 0.0, 0.0, 0.0, 0.09, -0.036000000000000004, 0.986, 192.0, 0.0, 0.0, 0.0, 0.0, 0.0, 0.0, 0.0, 0.0, 0.0, 1.7151634796255784E9, 0.0, 2024-05-08 13:17:59.625
157.0, -2056.0475654658753, 0.0, 0.0, 0.0, 0.0, 0.0, 0.0, 0.0, 0.094, -0.04, 0.99, 192.0, 2.0, 240.0, 254.0, 192.0, 30.0, 240.0, 0.0, 0.0, 0.0, 1.715163479625596E9, 0.0, 2024-05-08 13:17:59.625
158.0, -2315.283097658527, 0.0, 0.0, 0.0, 0.0, 0.0, 0.0, 0.0, 0.094, -0.04, 0.99, 192.0, 0.0, 0.0, 0.0, 0.0, 0.0, 0.0, 0.0, 0.0, 0.0, 1.7151634796256258E9, 0.0, 2024-05-08 13:17:59.625
159.0, -3345.027964714523, 0.0, 0.0, 0.0, 0.0, 0.0, 0.0, 0.0, 0.094, -0.04, 0.99, 192.0, 0.0, 0.0, 0.0, 0.0, 0.0, 0.0, 0.0, 0.0, 0.0, 1.7151634796256444E9, 0.0, 2024-05-08 13:17:59.625
160.0, -3697.4702712858048, 0.0, 0.0, 0.0, 0.0, 0.0, 0.0, 0.0, 0.094, -0.04, 0.99, 192.0, 0.0, 0.0, 0.0, 0.0, 0.0, 0.0, 0.0, 0.0, 0.0, 1.7151634796256618E9, 0.0, 2024-05-08 13:17:59.625
161.0, -2875.954255575449, 0.0, 0.0, 0.0, 0.0, 0.0, 0.0, 0.0, 0.094, -0.04, 0.99, 192.0, 0.0, 0.0, 0.0, 0.0, 0.0, 0.0, 0.0, 0.0, 0.0, 1.7151634796256852E9, 0.0, 2024-05-08 13:17:59.625
162.0, -1934.1187994621755, 0.0, 0.0, 0.0, 0.0, 0.0, 0.0, 0.0, 0.094, -0.04, 0.99, 192.0, 0.0, 0.0, 0.0, 0.0, 0.0, 0.0, 0.0, 0.0, 0.0, 1.715163479625705E9, 0.0, 2024-05-08 13:17:59.625
163.0, -2114.2291562830396, 0.0, 0.0, 0.0, 0.0, 0.0, 0.0, 0.0, 0.094, -0.04, 0.99, 192.0, 0.0, 0.0, 0.0, 0.0, 0.0, 0.0, 0.0, 0.0, 0.0, 1.7151634796257236E9, 0.0, 2024-05-08 13:17:59.625
164.0, -3109.3288194333104, 0.0, 0.0, 0.0, 0.0, 0.0, 0.0, 0.0, 0.094, -0.04, 0.99, 192.0, 0.0, 0.0, 0.0, 0.0, 0.0, 0.0, 0.0, 0.0, 0.0, 1.7151634796257408E9, 0.0, 2024-05-08 13:17:59.625
165.0, -3402.1813752867433, 0.0, 0.0, 0.0, 0.0, 0.0, 0.0, 0.0, 0.094, -0.04, 0.99, 192.0, 0.0, 0.0, 0.0, 0.0, 0.0, 0.0, 0.0, 0.0, 0.0, 1.715163479625759E9, 0.0, 2024-05-08 13:17:59.625
166.0, -2450.846427779964, 0.0, 0.0, 0.0, 0.0, 0.0, 0.0, 0.0, 0.094, -0.04, 0.99, 192.0, 0.0, 0.0, 0.0, 0.0, 0.0, 0.0, 0.0, 0.0, 0.0, 1.7151634796257775E9, 0.0, 2024-05-08 13:17:59.625
167.0, -1459.5242094426405, 0.0, 0.0, 0.0, 0.0, 0.0, 0.0, 0.0, 0.098, -0.038, 0.986, 192.0, 3.0, 16.0, 254.0, 208.0, 30.0, 208.0, 0.0, 0.0, 0.0, 1.7151634796257951E9, 0.0, 2024-05-08 13:17:59.625
168.0, -1596.4509959758516, 0.0, 0.0, 0.0, 0.0, 0.0, 0.0, 0.0, 0.098, -0.038, 0.986, 192.0, 0.0, 0.0, 0.0, 0.0, 0.0, 0.0, 0.0, 0.0, 0.0, 1.715163479625816E9, 0.0, 2024-05-08 13:17:59.625
169.0, -2541.88508294643, 0.0, 0.0, 0.0, 0.0, 0.0, 0.0, 0.0, 0.098, -0.038, 0.986, 192.0, 0.0, 0.0, 0.0, 0.0, 0.0, 0.0, 0.0, 0.0, 0.0, 1.7151634796258352E9, 0.0, 2024-05-08 13:17:59.625
170.0, -2808.384932087056, 0.0, 0.0, 0.0, 0.0, 0.0, 0.0, 0.0, 0.098, -0.038, 0.986, 192.0, 0.0, 0.0, 0.0, 0.0, 0.0, 0.0, 0.0, 0.0, 0.0, 1.7151634796258528E9, 0.0, 2024-05-08 13:17:59.625
171.0, -1862.1014788271762, 0.0, 0.0, 0.0, 0.0, 0.0, 0.0, 0.0, 0.098, -0.038, 0.986, 192.0, 0.0, 0.0, 0.0, 0.0, 0.0, 0.0, 0.0, 0.0, 0.0, 1.7151634796258707E9, 0.0, 2024-05-08 13:17:59.625
172.0, -764.1167359491272, 0.0, 0.0, 0.0, 0.0, 0.0, 0.0, 0.0, 0.098, -0.038, 0.986, 192.0, 0.0, 0.0, 0.0, 0.0, 0.0, 0.0, 0.0, 0.0, 0.0, 1.7151634796258888E9, 0.0, 2024-05-08 13:17:59.625
173.0, -763.5579423377445, 0.0, 0.0, 0.0, 0.0, 0.0, 0.0, 0.0, 0.098, -0.038, 0.986, 192.0, 0.0, 0.0, 0.0, 0.0, 0.0, 0.0, 0.0, 0.0, 0.0, 1.7151634796259065E9, 0.0, 2024-05-08 13:17:59.625
174.0, -1557.2236844567879, 0.0, 0.0, 0.0, 0.0, 0.0, 0.0, 0.0, 0.098, -0.038, 0.986, 192.0, 0.0, 0.0, 0.0, 0.0, 0.0, 0.0, 0.0, 0.0, 0.0, 1.715163479625926E9, 0.0, 2024-05-08 13:17:59.625
175.0, -1654.2526071372756, 0.0, 0.0, 0.0, 0.0, 0.0, 0.0, 0.0, 0.098, -0.038, 0.986, 192.0, 0.0, 0.0, 0.0, 0.0, 0.0, 0.0, 0.0, 0.0, 0.0, 1.715163479625945E9, 0.0, 2024-05-08 13:17:59.625
176.0, -636.2200541758602, 0.0, 0.0, 0.0, 0.0, 0.0, 0.0, 0.0, 0.098, -0.038, 0.986, 192.0, 0.0, 0.0, 0.0, 0.0, 0.0, 0.0, 0.0, 0.0, 0.0, 1.7151634796261165E9, 0.0, 2024-05-08 13:17:59.626
177.0, 564.7168236633329, 0.0, 0.0, 0.0, 0.0, 0.0, 0.0, 0.0, 0.094, -0.034, 0.986, 192.0, 2.0, 240.0, 254.0, 240.0, 30.0, 208.0, 0.0, 0.0, 0.0, 1.7151634796261535E9, 0.0, 2024-05-08 13:17:59.626
178.0, 716.1051888591277, 0.0, 0.0, 0.0, 0.0, 0.0, 0.0, 0.0, 0.094, -0.034, 0.986, 192.0, 0.0, 0.0, 0.0, 0.0, 0.0, 0.0, 0.0, 0.0, 0.0, 1.7151634796261764E9, 0.0, 2024-05-08 13:17:59.626
179.0, -1.5199186229608803, 0.0, 0.0, 0.0, 0.0, 0.0, 0.0, 0.0, 0.094, -0.034, 0.986, 192.0, 0.0, 0.0, 0.0, 0.0, 0.0, 0.0, 0.0, 0.0, 0.0, 1.7151634796261985E9, 0.0, 2024-05-08 13:17:59.626
180.0, -154.89758907527795, 0.0, 0.0, 0.0, 0.0, 0.0, 0.0, 0.0, 0.094, -0.034, 0.986, 192.0, 0.0, 0.0, 0.0, 0.0, 0.0, 0.0, 0.0, 0.0, 0.0, 1.7151634796262207E9, 0.0, 2024-05-08 13:17:59.626
181.0, 863.2020191195035, 0.0, 0.0, 0.0, 0.0, 0.0, 0.0, 0.0, 0.094, -0.034, 0.986, 192.0, 0.0, 0.0, 0.0, 0.0, 0.0, 0.0, 0.0, 0.0, 0.0, 1.7151634796262455E9, 0.0, 2024-05-08 13:17:59.626
182.0, 1949.519151391882, 0.0, 0.0, 0.0, 0.0, 0.0, 0.0, 0.0, 0.094, -0.034, 0.986, 192.0, 0.0, 0.0, 0.0, 0.0, 0.0, 0.0, 0.0, 0.0, 0.0, 1.7151634796262696E9, 0.0, 2024-05-08 13:17:59.626
183.0, 1896.5008135438936, 0.0, 0.0, 0.0, 0.0, 0.0, 0.0, 0.0, 0.094, -0.034, 0.986, 192.0, 0.0, 0.0, 0.0, 0.0, 0.0, 0.0, 0.0, 0.0, 0.0, 1.7151634796262937E9, 0.0, 2024-05-08 13:17:59.626
184.0, 894.6732753125758, 0.0, 0.0, 0.0, 0.0, 0.0, 0.0, 0.0, 0.094, -0.034, 0.986, 192.0, 0.0, 0.0, 0.0, 0.0, 0.0, 0.0, 0.0, 0.0, 0.0, 1.7151634796263168E9, 0.0, 2024-05-08 13:17:59.626
185.0, 407.56170839806896, 0.0, 0.0, 0.0, 0.0, 0.0, 0.0, 0.0, 0.094, -0.034, 0.986, 192.0, 0.0, 0.0, 0.0, 0.0, 0.0, 0.0, 0.0, 0.0, 0.0, 1.7151634796263409E9, 0.0, 2024-05-08 13:17:59.626
186.0, 913.6946098440421, 0.0, 0.0, 0.0, 0.0, 0.0, 0.0, 0.0, 0.094, -0.034, 0.986, 192.0, 0.0, 0.0, 0.0, 0.0, 0.0, 0.0, 0.0, 0.0, 0.0, 1.7151634796263657E9, 0.0, 2024-05-08 13:17:59.626
187.0, 1530.0439631991344, 0.0, 0.0, 0.0, 0.0, 0.0, 0.0, 0.0, 0.092, -0.038, 0.986, 192.0, 2.0, 224.0, 254.0, 208.0, 30.0, 208.0, 0.0, 0.0, 0.0, 1.7151634796263916E9, 0.0, 2024-05-08 13:17:59.626
188.0, 1238.9795469021258, 0.0, 0.0, 0.0, 0.0, 0.0, 0.0, 0.0, 0.092, -0.038, 0.986, 192.0, 0.0, 0.0, 0.0, 0.0, 0.0, 0.0, 0.0, 0.0, 0.0, 1.7151634796264179E9, 0.0, 2024-05-08 13:17:59.626
189.0, 76.86764918180099, 0.0, 0.0, 0.0, 0.0, 0.0, 0.0, 0.0, 0.092, -0.038, 0.986, 192.0, 0.0, 0.0, 0.0, 0.0, 0.0, 0.0, 0.0, 0.0, 0.0, 1.7151634796264431E9, 0.0, 2024-05-08 13:17:59.626
190.0, -591.2259925873271, 0.0, 0.0, 0.0, 0.0, 0.0, 0.0, 0.0, 0.092, -0.038, 0.986, 192.0, 0.0, 0.0, 0.0, 0.0, 0.0, 0.0, 0.0, 0.0, 0.0, 1.715163479626474E9, 0.0, 2024-05-08 13:17:59.626
191.0, -68.23987582205247, 0.0, 0.0, 0.0, 0.0, 0.0, 0.0, 0.0, 0.092, -0.038, 0.986, 192.0, 0.0, 0.0, 0.0, 0.0, 0.0, 0.0, 0.0, 0.0, 0.0, 1.7151634796264985E9, 0.0, 2024-05-08 13:17:59.626
192.0, 615.4105800879694, 0.0, 0.0, 0.0, 0.0, 0.0, 0.0, 0.0, 0.092, -0.038, 0.986, 192.0, 0.0, 0.0, 0.0, 0.0, 0.0, 0.0, 0.0, 0.0, 0.0, 1.715163479626522E9, 0.0, 2024-05-08 13:17:59.626
193.0, 215.78374097153437, 0.0, 0.0, 0.0, 0.0, 0.0, 0.0, 0.0, 0.092, -0.038, 0.986, 192.0, 0.0, 0.0, 0.0, 0.0, 0.0, 0.0, 0.0, 0.0, 0.0, 1.7151634796265645E9, 0.0, 2024-05-08 13:17:59.626
194.0, -1044.0276317629375, 0.0, 0.0, 0.0, 0.0, 0.0, 0.0, 0.0, 0.092, -0.038, 0.986, 192.0, 0.0, 0.0, 0.0, 0.0, 0.0, 0.0, 0.0, 0.0, 0.0, 1.7151634796265903E9, 0.0, 2024-05-08 13:17:59.626
195.0, -1751.817971684691, 0.0, 0.0, 0.0, 0.0, 0.0, 0.0, 0.0, 0.092, -0.038, 0.986, 192.0, 0.0, 0.0, 0.0, 0.0, 0.0, 0.0, 0.0, 0.0, 0.0, 1.7151634796266165E9, 0.0, 2024-05-08 13:17:59.626
196.0, -1263.968797203159, 0.0, 0.0, 0.0, 0.0, 0.0, 0.0, 0.0, 0.092, -0.038, 0.986, 192.0, 0.0, 0.0, 0.0, 0.0, 0.0, 0.0, 0.0, 0.0, 0.0, 1.7151634796266384E9, 0.0, 2024-05-08 13:17:59.626
197.0, -615.0976556655951, 0.0, 0.0, 0.0, 0.0, 0.0, 0.0, 0.0, 0.092, -0.032, 0.99, 192.0, 2.0, 224.0, 255.0, 0.0, 30.0, 240.0, 0.0, 0.0, 0.0, 1.7151634796266615E9, 0.0, 2024-05-08 13:17:59.626
198.0, -894.7850340348523, 0.0, 0.0, 0.0, 0.0, 0.0, 0.0, 0.0, 0.092, -0.032, 0.99, 192.0, 0.0, 0.0, 0.0, 0.0, 0.0, 0.0, 0.0, 0.0, 0.0, 1.7151634796266897E9, 0.0, 2024-05-08 13:17:59.626
199.0, -1998.0671403488088, 0.0, 0.0, 0.0, 0.0, 0.0, 0.0, 0.0, 0.092, -0.032, 0.99, 192.0, 0.0, 0.0, 0.0, 0.0, 0.0, 0.0, 0.0, 0.0, 0.0, 1.7151634796267073E9, 0.0, 2024-05-08 13:17:59.626
200.0, -2352.789324854532, 0.0, 0.0, 0.0, 0.0, 0.0, 0.0, 0.0, 0.092, -0.032, 0.99, 192.0, 0.0, 0.0, 0.0, 0.0, 0.0, 0.0, 0.0, 0.0, 0.0, 1.7151634796267345E9, 0.0, 2024-05-08 13:17:59.626
201.0, -1457.512552441663, 0.0, 0.0, 0.0, 0.0, 0.0, 0.0, 0.0, 0.092, -0.032, 0.99, 192.0, 0.0, 0.0, 0.0, 0.0, 0.0, 0.0, 0.0, 0.0, 0.0, 1.7151634796267583E9, 0.0, 2024-05-08 13:17:59.626
202.0, -356.6667862733348, 0.0, 0.0, 0.0, 0.0, 0.0, 0.0, 0.0, 0.092, -0.032, 0.99, 192.0, 0.0, 0.0, 0.0, 0.0, 0.0, 0.0, 0.0, 0.0, 0.0, 1.7151634796267796E9, 0.0, 2024-05-08 13:17:59.626
203.0, -304.40840773682686, 0.0, 0.0, 0.0, 0.0, 0.0, 0.0, 0.0, 0.092, -0.032, 0.99, 192.0, 0.0, 0.0, 0.0, 0.0, 0.0, 0.0, 0.0, 0.0, 0.0, 1.7151634796268013E9, 0.0, 2024-05-08 13:17:59.626
204.0, -1210.682238421707, 0.0, 0.0, 0.0, 0.0, 0.0, 0.0, 0.0, 0.092, -0.032, 0.99, 192.0, 0.0, 0.0, 0.0, 0.0, 0.0, 0.0, 0.0, 0.0, 0.0, 1.715163479626828E9, 0.0, 2024-05-08 13:17:59.626
205.0, -1683.3322266736302, 0.0, 0.0, 0.0, 0.0, 0.0, 0.0, 0.0, 0.092, -0.032, 0.99, 192.0, 0.0, 0.0, 0.0, 0.0, 0.0, 0.0, 0.0, 0.0, 0.0, 1.71516347962685E9, 0.0, 2024-05-08 13:17:59.626
206.0, -1149.9078452477272, 0.0, 0.0, 0.0, 0.0, 0.0, 0.0, 0.0, 0.092, -0.032, 0.99, 192.0, 0.0, 0.0, 0.0, 0.0, 0.0, 0.0, 0.0, 0.0, 0.0, 1.7151634796268733E9, 0.0, 2024-05-08 13:17:59.626
207.0, -614.3153446096593, 0.0, 0.0, 0.0, 0.0, 0.0, 0.0, 0.0, 0.092, -0.042, 0.992, 192.0, 2.0, 224.0, 254.0, 176.0, 31.0, 0.0, 0.0, 0.0, 0.0, 1.715163479626897E9, 0.0, 2024-05-08 13:17:59.626
208.0, -1189.9845230560927, 0.0, 0.0, 0.0, 0.0, 0.0, 0.0, 0.0, 0.092, -0.042, 0.992, 192.0, 0.0, 0.0, 0.0, 0.0, 0.0, 0.0, 0.0, 0.0, 0.0, 1.7151634796269228E9, 0.0, 2024-05-08 13:17:59.626
209.0, -2732.545463150199, 0.0, 0.0, 0.0, 0.0, 0.0, 0.0, 0.0, 0.092, -0.042, 0.992, 192.0, 0.0, 0.0, 0.0, 0.0, 0.0, 0.0, 0.0, 0.0, 0.0, 1.7151634796269455E9, 0.0, 2024-05-08 13:17:59.626
210.0, -3839.4485520659155, 0.0, 0.0, 0.0, 0.0, 0.0, 0.0, 0.0, 0.092, -0.042, 0.992, 192.0, 0.0, 0.0, 0.0, 0.0, 0.0, 0.0, 0.0, 0.0, 0.0, 1.7151634796269689E9, 0.0, 2024-05-08 13:17:59.626
211.0, -3855.720622029379, 0.0, 0.0, 0.0, 0.0, 0.0, 0.0, 0.0, 0.092, -0.042, 0.992, 192.0, 0.0, 0.0, 0.0, 0.0, 0.0, 0.0, 0.0, 0.0, 0.0, 1.7151634796270137E9, 0.0, 2024-05-08 13:17:59.627
212.0, -3596.8203660035574, 0.0, 0.0, 0.0, 0.0, 0.0, 0.0, 0.0, 0.092, -0.042, 0.992, 192.0, 0.0, 0.0, 0.0, 0.0, 0.0, 0.0, 0.0, 0.0, 0.0, 1.7151634796270378E9, 0.0, 2024-05-08 13:17:59.627
213.0, -4232.794550990409, 0.0, 0.0, 0.0, 0.0, 0.0, 0.0, 0.0, 0.092, -0.042, 0.992, 192.0, 0.0, 0.0, 0.0, 0.0, 0.0, 0.0, 0.0, 0.0, 0.0, 1.7151634796270635E9, 0.0, 2024-05-08 13:17:59.627
214.0, -5773.254427105717, 0.0, 0.0, 0.0, 0.0, 0.0, 0.0, 0.0, 0.092, -0.042, 0.992, 192.0, 0.0, 0.0, 0.0, 0.0, 0.0, 0.0, 0.0, 0.0, 0.0, 1.7151634796270864E9, 0.0, 2024-05-08 13:17:59.627
215.0, -6737.1063515074675, 0.0, 0.0, 0.0, 0.0, 0.0, 0.0, 0.0, 0.092, -0.042, 0.992, 192.0, 0.0, 0.0, 0.0, 0.0, 0.0, 0.0, 0.0, 0.0, 0.0, 1.7151634796271195E9, 0.0, 2024-05-08 13:17:59.627
216.0, -6571.122297182357, 0.0, 0.0, 0.0, 0.0, 0.0, 0.0, 0.0, 0.092, -0.042, 0.992, 192.0, 0.0, 0.0, 0.0, 0.0, 0.0, 0.0, 0.0, 0.0, 0.0, 1.715163479627143E9, 0.0, 2024-05-08 13:17:59.627
217.0, -6091.789137338297, 0.0, 0.0, 0.0, 0.0, 0.0, 0.0, 0.0, 0.082, -0.036000000000000004, 0.992, 192.0, 2.0, 144.0, 254.0, 224.0, 31.0, 0.0, 0.0, 0.0, 0.0, 1.715163479627166E9, 0.0, 2024-05-08 13:17:59.627
218.0, -6484.509287418043, 0.0, 0.0, 0.0, 0.0, 0.0, 0.0, 0.0, 0.082, -0.036000000000000004, 0.992, 192.0, 0.0, 0.0, 0.0, 0.0, 0.0, 0.0, 0.0, 0.0, 0.0, 1.7151634796271904E9, 0.0, 2024-05-08 13:17:59.627
219.0, -7755.4071254023465, 0.0, 0.0, 0.0, 0.0, 0.0, 0.0, 0.0, 0.082, -0.036000000000000004, 0.992, 192.0, 0.0, 0.0, 0.0, 0.0, 0.0, 0.0, 0.0, 0.0, 0.0, 1.7151634796272151E9, 0.0, 2024-05-08 13:17:59.627
220.0, -8400.254952937956, 0.0, 0.0, 0.0, 0.0, 0.0, 0.0, 0.0, 0.082, -0.036000000000000004, 0.992, 192.0, 0.0, 0.0, 0.0, 0.0, 0.0, 0.0, 0.0, 0.0, 0.0, 1.715163479627237E9, 0.0, 2024-05-08 13:17:59.627
221.0, -7832.855919939986, 0.0, 0.0, 0.0, 0.0, 0.0, 0.0, 0.0, 0.082, -0.036000000000000004, 0.992, 192.0, 0.0, 0.0, 0.0, 0.0, 0.0, 0.0, 0.0, 0.0, 0.0, 1.71516347962726E9, 0.0, 2024-05-08 13:17:59.627
222.0, -6983.064947493666, 0.0, 0.0, 0.0, 0.0, 0.0, 0.0, 0.0, 0.082, -0.036000000000000004, 0.992, 192.0, 0.0, 0.0, 0.0, 0.0, 0.0, 0.0, 0.0, 0.0, 0.0, 1.7151634796272829E9, 0.0, 2024-05-08 13:17:59.627
223.0, -6986.171839972954, 0.0, 0.0, 0.0, 0.0, 0.0, 0.0, 0.0, 0.082, -0.036000000000000004, 0.992, 192.0, 0.0, 0.0, 0.0, 0.0, 0.0, 0.0, 0.0, 0.0, 0.0, 1.7151634796273055E9, 0.0, 2024-05-08 13:17:59.627
224.0, -7834.845225196508, 0.0, 0.0, 0.0, 0.0, 0.0, 0.0, 0.0, 0.082, -0.036000000000000004, 0.992, 192.0, 0.0, 0.0, 0.0, 0.0, 0.0, 0.0, 0.0, 0.0, 0.0, 1.715163479627329E9, 0.0, 2024-05-08 13:17:59.627
225.0, -8183.018348576827, 0.0, 0.0, 0.0, 0.0, 0.0, 0.0, 0.0, 0.082, -0.036000000000000004, 0.992, 192.0, 0.0, 0.0, 0.0, 0.0, 0.0, 0.0, 0.0, 0.0, 0.0, 1.715163479627354E9, 0.0, 2024-05-08 13:17:59.627
226.0, -7379.719004597546, 0.0, 0.0, 0.0, 0.0, 0.0, 0.0, 0.0, 0.082, -0.036000000000000004, 0.992, 192.0, 0.0, 0.0, 0.0, 0.0, 0.0, 0.0, 0.0, 0.0, 0.0, 1.715163479627376E9, 0.0, 2024-05-08 13:17:59.627
227.0, -6314.792491768896, 0.0, 0.0, 0.0, 0.0, 0.0, 0.0, 0.0, 0.094, -0.04, 0.988, 192.0, 2.0, 240.0, 254.0, 192.0, 30.0, 224.0, 0.0, 0.0, 0.0, 1.7151634796273997E9, 0.0, 2024-05-08 13:17:59.627
228.0, -6180.570266314777, 0.0, 0.0, 0.0, 0.0, 0.0, 0.0, 0.0, 0.094, -0.04, 0.988, 192.0, 0.0, 0.0, 0.0, 0.0, 0.0, 0.0, 0.0, 0.0, 0.0, 1.7151634796274436E9, 0.0, 2024-05-08 13:17:59.627
229.0, -7050.097829115132, 0.0, 0.0, 0.0, 0.0, 0.0, 0.0, 0.0, 0.094, -0.04, 0.988, 192.0, 0.0, 0.0, 0.0, 0.0, 0.0, 0.0, 0.0, 0.0, 0.0, 1.715163479627467E9, 0.0, 2024-05-08 13:17:59.627
230.0, -7463.359232349305, 0.0, 0.0, 0.0, 0.0, 0.0, 0.0, 0.0, 0.094, -0.04, 0.988, 192.0, 0.0, 0.0, 0.0, 0.0, 0.0, 0.0, 0.0, 0.0, 0.0, 1.7151634796274896E9, 0.0, 2024-05-08 13:17:59.627
231.0, -6786.5260584981515, 0.0, 0.0, 0.0, 0.0, 0.0, 0.0, 0.0, 0.094, -0.04, 0.988, 192.0, 0.0, 0.0, 0.0, 0.0, 0.0, 0.0, 0.0, 0.0, 0.0, 1.7151634796275158E9, 0.0, 2024-05-08 13:17:59.627
232.0, -5929.001382470296, 0.0, 0.0, 0.0, 0.0, 0.0, 0.0, 0.0, 0.094, -0.04, 0.988, 192.0, 0.0, 0.0, 0.0, 0.0, 0.0, 0.0, 0.0, 0.0, 0.0, 1.7151634796275392E9, 0.0, 2024-05-08 13:17:59.627
233.0, -6084.189544223493, 0.0, 0.0, 0.0, 0.0, 0.0, 0.0, 0.0, 0.094, -0.04, 0.988, 192.0, 0.0, 0.0, 0.0, 0.0, 0.0, 0.0, 0.0, 0.0, 0.0, 1.7151634796275618E9, 0.0, 2024-05-08 13:17:59.627
234.0, -7276.744517891946, 0.0, 0.0, 0.0, 0.0, 0.0, 0.0, 0.0, 0.094, -0.04, 0.988, 192.0, 0.0, 0.0, 0.0, 0.0, 0.0, 0.0, 0.0, 0.0, 0.0, 1.7151634796275847E9, 0.0, 2024-05-08 13:17:59.627
235.0, -7999.197602176381, 0.0, 0.0, 0.0, 0.0, 0.0, 0.0, 0.0, 0.094, -0.04, 0.988, 192.0, 0.0, 0.0, 0.0, 0.0, 0.0, 0.0, 0.0, 0.0, 0.0, 1.7151634796276073E9, 0.0, 2024-05-08 13:17:59.627
236.0, -7602.588248561412, 0.0, 0.0, 0.0, 0.0, 0.0, 0.0, 0.0, 0.094, -0.04, 0.988, 192.0, 0.0, 0.0, 0.0, 0.0, 0.0, 0.0, 0.0, 0.0, 0.0, 1.71516347962763E9, 0.0, 2024-05-08 13:17:59.627
237.0, -6973.945435755902, 0.0, 0.0, 0.0, 0.0, 0.0, 0.0, 0.0, 0.094, -0.038, 0.988, 192.0, 2.0, 240.0, 254.0, 208.0, 30.0, 224.0, 0.0, 0.0, 0.0, 1.715163479627652E9, 0.0, 2024-05-08 13:17:59.627
238.0, -7252.135247246653, 0.0, 0.0, 0.0, 0.0, 0.0, 0.0, 0.0, 0.094, -0.038, 0.988, 192.0, 0.0, 0.0, 0.0, 0.0, 0.0, 0.0, 0.0, 0.0, 0.0, 1.7151634796276765E9, 0.0, 2024-05-08 13:17:59.627
239.0, -8545.876568064281, 0.0, 0.0, 0.0, 0.0, 0.0, 0.0, 0.0, 0.094, -0.038, 0.988, 192.0, 0.0, 0.0, 0.0, 0.0, 0.0, 0.0, 0.0, 0.0, 0.0, 1.7151634796276991E9, 0.0, 2024-05-08 13:17:59.627
240.0, -9443.857901556243, 0.0, 0.0, 0.0, 0.0, 0.0, 0.0, 0.0, 0.094, -0.038, 0.988, 192.0, 0.0, 0.0, 0.0, 0.0, 0.0, 0.0, 0.0, 0.0, 0.0, 1.7151634796277215E9, 0.0, 2024-05-08 13:17:59.627
241.0, -9043.292289172685, 0.0, 0.0, 0.0, 0.0, 0.0, 0.0, 0.0, 0.094, -0.038, 0.988, 192.0, 0.0, 0.0, 0.0, 0.0, 0.0, 0.0, 0.0, 0.0, 0.0, 1.7151634801044E9, 0.0, 2024-05-08 13:18:00.104
242.0, -8217.976476904927, 0.0, 0.0, 0.0, 0.0, 0.0, 0.0, 0.0, 0.094, -0.038, 0.988, 192.0, 0.0, 0.0, 0.0, 0.0, 0.0, 0.0, 0.0, 0.0, 0.0, 1.7151634801044812E9, 0.0, 2024-05-08 13:18:00.104
243.0, -8366.079135665792, 0.0, 0.0, 0.0, 0.0, 0.0, 0.0, 0.0, 0.094, -0.038, 0.988, 192.0, 0.0, 0.0, 0.0, 0.0, 0.0, 0.0, 0.0, 0.0, 0.0, 1.7151634801045177E9, 0.0, 2024-05-08 13:18:00.104
244.0, -9639.972107407106, 0.0, 0.0, 0.0, 0.0, 0.0, 0.0, 0.0, 0.094, -0.038, 0.988, 192.0, 0.0, 0.0, 0.0, 0.0, 0.0, 0.0, 0.0, 0.0, 0.0, 1.7151634801045575E9, 0.0, 2024-05-08 13:18:00.104
245.0, -10466.427858642086, 0.0, 0.0, 0.0, 0.0, 0.0, 0.0, 0.0, 0.094, -0.038, 0.988, 192.0, 0.0, 0.0, 0.0, 0.0, 0.0, 0.0, 0.0, 0.0, 0.0, 1.7151634801045911E9, 0.0, 2024-05-08 13:18:00.104
246.0, -10075.048813229658, 0.0, 0.0, 0.0, 0.0, 0.0, 0.0, 0.0, 0.094, -0.038, 0.988, 192.0, 0.0, 0.0, 0.0, 0.0, 0.0, 0.0, 0.0, 0.0, 0.0, 1.7151634801047163E9, 0.0, 2024-05-08 13:18:00.104
247.0, -9308.607495857179, 0.0, 0.0, 0.0, 0.0, 0.0, 0.0, 0.0, 0.092, -0.04, 0.982, 192.0, 2.0, 224.0, 254.0, 192.0, 30.0, 176.0, 0.0, 0.0, 0.0, 1.715163480104741E9, 0.0, 2024-05-08 13:18:00.104
248.0, -9456.084305773295, 0.0, 0.0, 0.0, 0.0, 0.0, 0.0, 0.0, 0.092, -0.04, 0.982, 192.0, 0.0, 0.0, 0.0, 0.0, 0.0, 0.0, 0.0, 0.0, 0.0, 1.715163480104768E9, 0.0, 2024-05-08 13:18:00.104
249.0, -10793.255066067584, 0.0, 0.0, 0.0, 0.0, 0.0, 0.0, 0.0, 0.092, -0.04, 0.982, 192.0, 0.0, 0.0, 0.0, 0.0, 0.0, 0.0, 0.0, 0.0, 0.0, 1.7151634801047916E9, 0.0, 2024-05-08 13:18:00.104
250.0, -11477.732536522453, 0.0, 0.0, 0.0, 0.0, 0.0, 0.0, 0.0, 0.092, -0.04, 0.982, 192.0, 0.0, 0.0, 0.0, 0.0, 0.0, 0.0, 0.0, 0.0, 0.0, 1.715163480104817E9, 0.0, 2024-05-08 13:18:00.104
251.0, -10764.93540584271, 0.0, 0.0, 0.0, 0.0, 0.0, 0.0, 0.0, 0.092, -0.04, 0.982, 192.0, 0.0, 0.0, 0.0, 0.0, 0.0, 0.0, 0.0, 0.0, 0.0, 1.7151634801048412E9, 0.0, 2024-05-08 13:18:00.104
252.0, -9732.754198641087, 0.0, 0.0, 0.0, 0.0, 0.0, 0.0, 0.0, 0.092, -0.04, 0.982, 192.0, 0.0, 0.0, 0.0, 0.0, 0.0, 0.0, 0.0, 0.0, 0.0, 1.7151634801048648E9, 0.0, 2024-05-08 13:18:00.104
253.0, -9885.4836685042, 0.0, 0.0, 0.0, 0.0, 0.0, 0.0, 0.0, 0.092, -0.04, 0.982, 192.0, 0.0, 0.0, 0.0, 0.0, 0.0, 0.0, 0.0, 0.0, 0.0, 1.7151634801048887E9, 0.0, 2024-05-08 13:18:00.104
254.0, -11220.665123541967, 0.0, 0.0, 0.0, 0.0, 0.0, 0.0, 0.0, 0.092, -0.04, 0.982, 192.0, 0.0, 0.0, 0.0, 0.0, 0.0, 0.0, 0.0, 0.0, 0.0, 1.7151634801049128E9, 0.0, 2024-05-08 13:18:00.104
255.0, -11946.560376472518, 0.0, 0.0, 0.0, 0.0, 0.0, 0.0, 0.0, 0.092, -0.04, 0.982, 192.0, 0.0, 0.0, 0.0, 0.0, 0.0, 0.0, 0.0, 0.0, 0.0, 1.7151634801049366E9, 0.0, 2024-05-08 13:18:00.104
0.0, -11441.723876204953, 0.0, 0.0, 0.0, 0.0, 0.0, 0.0, 0.0, 0.092, -0.04, 0.982, 192.0, 0.0, 0.0, 0.0, 0.0, 0.0, 0.0, 0.0, 0.0, 0.0, 1.715163480104962E9, 0.0, 2024-05-08 13:18:00.104
1.0, -10608.80847082239, 0.0, 0.0, 0.0, 0.0, 0.0, 0.0, 0.0, 0.096, -0.038, 0.99, 192.0, 3.0, 0.0, 254.0, 208.0, 30.0, 240.0, 0.0, 0.0, 0.0, 1.715163480104986E9, 0.0, 2024-05-08 13:18:00.104
2.0, -10638.670401414682, 0.0, 0.0, 0.0, 0.0, 0.0, 0.0, 0.0, 0.096, -0.038, 0.99, 192.0, 0.0, 0.0, 0.0, 0.0, 0.0, 0.0, 0.0, 0.0, 0.0, 1.7151634801050105E9, 0.0, 2024-05-08 13:18:00.105
3.0, -11631.780759308429, 0.0, 0.0, 0.0, 0.0, 0.0, 0.0, 0.0, 0.096, -0.038, 0.99, 192.0, 0.0, 0.0, 0.0, 0.0, 0.0, 0.0, 0.0, 0.0, 0.0, 1.7151634801050336E9, 0.0, 2024-05-08 13:18:00.105
4.0, -12138.539509599152, 0.0, 0.0, 0.0, 0.0, 0.0, 0.0, 0.0, 0.096, -0.038, 0.99, 192.0, 0.0, 0.0, 0.0, 0.0, 0.0, 0.0, 0.0, 0.0, 0.0, 1.7151634801050568E9, 0.0, 2024-05-08 13:18:00.105
5.0, -11280.6125021711, 0.0, 0.0, 0.0, 0.0, 0.0, 0.0, 0.0, 0.096, -0.038, 0.99, 192.0, 0.0, 0.0, 0.0, 0.0, 0.0, 0.0, 0.0, 0.0, 0.0, 1.71516348010508E9, 0.0, 2024-05-08 13:18:00.105
6.0, -9956.964547272271, 0.0, 0.0, 0.0, 0.0, 0.0, 0.0, 0.0, 0.096, -0.038, 0.99, 192.0, 0.0, 0.0, 0.0, 0.0, 0.0, 0.0, 0.0, 0.0, 0.0, 1.7151634801051128E9, 0.0, 2024-05-08 13:18:00.105
7.0, -9623.05183685444, 0.0, 0.0, 0.0, 0.0, 0.0, 0.0, 0.0, 0.096, -0.038, 0.99, 192.0, 0.0, 0.0, 0.0, 0.0, 0.0, 0.0, 0.0, 0.0, 0.0, 1.715163480105167E9, 0.0, 2024-05-08 13:18:00.105
8.0, -10573.000976204989, 0.0, 0.0, 0.0, 0.0, 0.0, 0.0, 0.0, 0.096, -0.038, 0.99, 192.0, 0.0, 0.0, 0.0, 0.0, 0.0, 0.0, 0.0, 0.0, 0.0, 1.7151634801051908E9, 0.0, 2024-05-08 13:18:00.105
9.0, -10938.250832349162, 0.0, 0.0, 0.0, 0.0, 0.0, 0.0, 0.0, 0.096, -0.038, 0.99, 192.0, 0.0, 0.0, 0.0, 0.0, 0.0, 0.0, 0.0, 0.0, 0.0, 1.715163480105215E9, 0.0, 2024-05-08 13:18:00.105
10.0, -10042.817597725105, 0.0, 0.0, 0.0, 0.0, 0.0, 0.0, 0.0, 0.096, -0.038, 0.99, 192.0, 0.0, 0.0, 0.0, 0.0, 0.0, 0.0, 0.0, 0.0, 0.0, 1.7151634801052396E9, 0.0, 2024-05-08 13:18:00.105
11.0, -8807.883716569391, 0.0, 0.0, 0.0, 0.0, 0.0, 0.0, 0.0, 0.096, -0.036000000000000004, 0.992, 192.0, 3.0, 0.0, 254.0, 224.0, 31.0, 0.0, 0.0, 0.0, 0.0, 1.7151634801052632E9, 0.0, 2024-05-08 13:18:00.105
12.0, -8448.579424450329, 0.0, 0.0, 0.0, 0.0, 0.0, 0.0, 0.0, 0.096, -0.036000000000000004, 0.992, 192.0, 0.0, 0.0, 0.0, 0.0, 0.0, 0.0, 0.0, 0.0, 0.0, 1.7151634801052883E9, 0.0, 2024-05-08 13:18:00.105
13.0, -9156.52622658327, 0.0, 0.0, 0.0, 0.0, 0.0, 0.0, 0.0, 0.096, -0.036000000000000004, 0.992, 192.0, 0.0, 0.0, 0.0, 0.0, 0.0, 0.0, 0.0, 0.0, 0.0, 1.715163480105314E9, 0.0, 2024-05-08 13:18:00.105
14.0, -9343.297403251816, 0.0, 0.0, 0.0, 0.0, 0.0, 0.0, 0.0, 0.096, -0.036000000000000004, 0.992, 192.0, 0.0, 0.0, 0.0, 0.0, 0.0, 0.0, 0.0, 0.0, 0.0, 1.715163480105338E9, 0.0, 2024-05-08 13:18:00.105
15.0, -8270.346614163711, 0.0, 0.0, 0.0, 0.0, 0.0, 0.0, 0.0, 0.096, -0.036000000000000004, 0.992, 192.0, 0.0, 0.0, 0.0, 0.0, 0.0, 0.0, 0.0, 0.0, 0.0, 1.7151634801053615E9, 0.0, 2024-05-08 13:18:00.105
16.0, -6862.410230923919, 0.0, 0.0, 0.0, 0.0, 0.0, 0.0, 0.0, 0.096, -0.036000000000000004, 0.992, 192.0, 0.0, 0.0, 0.0, 0.0, 0.0, 0.0, 0.0, 0.0, 0.0, 1.7151634801053848E9, 0.0, 2024-05-08 13:18:00.105
17.0, -6354.9138730661725, 0.0, 0.0, 0.0, 0.0, 0.0, 0.0, 0.0, 0.096, -0.036000000000000004, 0.992, 192.0, 0.0, 0.0, 0.0, 0.0, 0.0, 0.0, 0.0, 0.0, 0.0, 1.715163480105408E9, 0.0, 2024-05-08 13:18:00.105
18.0, -6953.1136099235555, 0.0, 0.0, 0.0, 0.0, 0.0, 0.0, 0.0, 0.096, -0.036000000000000004, 0.992, 192.0, 0.0, 0.0, 0.0, 0.0, 0.0, 0.0, 0.0, 0.0, 0.0, 1.7151634801054313E9, 0.0, 2024-05-08 13:18:00.105
19.0, -6982.819078304658, 0.0, 0.0, 0.0, 0.0, 0.0, 0.0, 0.0, 0.096, -0.036000000000000004, 0.992, 192.0, 0.0, 0.0, 0.0, 0.0, 0.0, 0.0, 0.0, 0.0, 0.0, 1.7151634801054564E9, 0.0, 2024-05-08 13:18:00.105
20.0, -5661.629815295913, 0.0, 0.0, 0.0, 0.0, 0.0, 0.0, 0.0, 0.096, -0.036000000000000004, 0.992, 192.0, 0.0, 0.0, 0.0, 0.0, 0.0, 0.0, 0.0, 0.0, 0.0, 1.7151634801054802E9, 0.0, 2024-05-08 13:18:00.105
21.0, -3967.904027450565, 0.0, 0.0, 0.0, 0.0, 0.0, 0.0, 0.0, 0.1, -0.04, 0.99, 192.0, 3.0, 32.0, 254.0, 192.0, 30.0, 240.0, 0.0, 0.0, 0.0, 1.7151634801055048E9, 0.0, 2024-05-08 13:18:00.105
22.0, -3209.7328555265494, 0.0, 0.0, 0.0, 0.0, 0.0, 0.0, 0.0, 0.1, -0.04, 0.99, 192.0, 0.0, 0.0, 0.0, 0.0, 0.0, 0.0, 0.0, 0.0, 0.0, 1.7151634801055293E9, 0.0, 2024-05-08 13:18:00.105
23.0, -3824.294069325217, 0.0, 0.0, 0.0, 0.0, 0.0, 0.0, 0.0, 0.1, -0.04, 0.99, 192.0, 0.0, 0.0, 0.0, 0.0, 0.0, 0.0, 0.0, 0.0, 0.0, 1.7151634801055527E9, 0.0, 2024-05-08 13:18:00.105
24.0, -4007.265449436361, 0.0, 0.0, 0.0, 0.0, 0.0, 0.0, 0.0, 0.1, -0.04, 0.99, 192.0, 0.0, 0.0, 0.0, 0.0, 0.0, 0.0, 0.0, 0.0, 0.0, 1.7151634801055768E9, 0.0, 2024-05-08 13:18:00.105
25.0, -2854.6753948539967, 0.0, 0.0, 0.0, 0.0, 0.0, 0.0, 0.0, 0.1, -0.04, 0.99, 192.0, 0.0, 0.0, 0.0, 0.0, 0.0, 0.0, 0.0, 0.0, 0.0, 1.715163480105621E9, 0.0, 2024-05-08 13:18:00.105
26.0, -1197.8076336154502, 0.0, 0.0, 0.0, 0.0, 0.0, 0.0, 0.0, 0.1, -0.04, 0.99, 192.0, 0.0, 0.0, 0.0, 0.0, 0.0, 0.0, 0.0, 0.0, 0.0, 1.7151634801056452E9, 0.0, 2024-05-08 13:18:00.105
27.0, -426.2254150182504, 0.0, 0.0, 0.0, 0.0, 0.0, 0.0, 0.0, 0.1, -0.04, 0.99, 192.0, 0.0, 0.0, 0.0, 0.0, 0.0, 0.0, 0.0, 0.0, 0.0, 1.7151634801056705E9, 0.0, 2024-05-08 13:18:00.105
28.0, -932.5147786754106, 0.0, 0.0, 0.0, 0.0, 0.0, 0.0, 0.0, 0.1, -0.04, 0.99, 192.0, 0.0, 0.0, 0.0, 0.0, 0.0, 0.0, 0.0, 0.0, 0.0, 1.7151634801056943E9, 0.0, 2024-05-08 13:18:00.105
29.0, -814.5199196958447, 0.0, 0.0, 0.0, 0.0, 0.0, 0.0, 0.0, 0.1, -0.04, 0.99, 192.0, 0.0, 0.0, 0.0, 0.0, 0.0, 0.0, 0.0, 0.0, 0.0, 1.7151634801057184E9, 0.0, 2024-05-08 13:18:00.105
30.0, 912.442912154545, 0.0, 0.0, 0.0, 0.0, 0.0, 0.0, 0.0, 0.1, -0.04, 0.99, 192.0, 0.0, 0.0, 0.0, 0.0, 0.0, 0.0, 0.0, 0.0, 0.0, 1.715163480105742E9, 0.0, 2024-05-08 13:18:00.105
31.0, 3255.8221525933927, 0.0, 0.0, 0.0, 0.0, 0.0, 0.0, 0.0, 0.096, -0.038, 0.986, 192.0, 3.0, 0.0, 254.0, 208.0, 30.0, 208.0, 0.0, 0.0, 0.0, 1.7151634801057656E9, 0.0, 2024-05-08 13:18:00.105
32.0, 4700.21423103979, 0.0, 0.0, 0.0, 0.0, 0.0, 0.0, 0.0, 0.096, -0.038, 0.986, 192.0, 0.0, 0.0, 0.0, 0.0, 0.0, 0.0, 0.0, 0.0, 0.0, 1.71516348010579E9, 0.0, 2024-05-08 13:18:00.105
33.0, 4868.411108065976, 0.0, 0.0, 0.0, 0.0, 0.0, 0.0, 0.0, 0.096, -0.038, 0.986, 192.0, 0.0, 0.0, 0.0, 0.0, 0.0, 0.0, 0.0, 0.0, 0.0, 1.7151634801058135E9, 0.0, 2024-05-08 13:18:00.105
34.0, 5417.235841421586, 0.0, 0.0, 0.0, 0.0, 0.0, 0.0, 0.0, 0.096, -0.038, 0.986, 192.0, 0.0, 0.0, 0.0, 0.0, 0.0, 0.0, 0.0, 0.0, 0.0, 1.715163480105837E9, 0.0, 2024-05-08 13:18:00.105
35.0, 7382.17769648763, 0.0, 0.0, 0.0, 0.0, 0.0, 0.0, 0.0, 0.096, -0.038, 0.986, 192.0, 0.0, 0.0, 0.0, 0.0, 0.0, 0.0, 0.0, 0.0, 0.0, 1.7151634801058605E9, 0.0, 2024-05-08 13:18:00.105
36.0, 9904.616761757941, 0.0, 0.0, 0.0, 0.0, 0.0, 0.0, 0.0, 0.096, -0.038, 0.986, 192.0, 0.0, 0.0, 0.0, 0.0, 0.0, 0.0, 0.0, 0.0, 0.0, 1.715163480105884E9, 0.0, 2024-05-08 13:18:00.105
37.0, 11515.417577674101, 0.0, 0.0, 0.0, 0.0, 0.0, 0.0, 0.0, 0.096, -0.038, 0.986, 192.0, 0.0, 0.0, 0.0, 0.0, 0.0, 0.0, 0.0, 0.0, 0.0, 1.7151634801059072E9, 0.0, 2024-05-08 13:18:00.105
38.0, 12006.932438246304, 0.0, 0.0, 0.0, 0.0, 0.0, 0.0, 0.0, 0.096, -0.038, 0.986, 192.0, 0.0, 0.0, 0.0, 0.0, 0.0, 0.0, 0.0, 0.0, 0.0, 1.7151634801059327E9, 0.0, 2024-05-08 13:18:00.105
39.0, 13139.540033285622, 0.0, 0.0, 0.0, 0.0, 0.0, 0.0, 0.0, 0.096, -0.038, 0.986, 192.0, 0.0, 0.0, 0.0, 0.0, 0.0, 0.0, 0.0, 0.0, 0.0, 1.7151634801059575E9, 0.0, 2024-05-08 13:18:00.105
40.0, 15913.279761466953, 0.0, 0.0, 0.0, 0.0, 0.0, 0.0, 0.0, 0.096, -0.038, 0.986, 192.0, 0.0, 0.0, 0.0, 0.0, 0.0, 0.0, 0.0, 0.0, 0.0, 1.7151634801059828E9, 0.0, 2024-05-08 13:18:00.105
41.0, 19730.845955711124, 0.0, 0.0, 0.0, 0.0, 0.0, 0.0, 0.0, 0.094, -0.04, 0.986, 192.0, 2.0, 240.0, 254.0, 192.0, 30.0, 208.0, 0.0, 0.0, 0.0, 1.7151634801060069E9, 0.0, 2024-05-08 13:18:00.106
42.0, 22886.733458844836, 0.0, 0.0, 0.0, 0.0, 0.0, 0.0, 0.0, 0.094, -0.04, 0.986, 192.0, 0.0, 0.0, 0.0, 0.0, 0.0, 0.0, 0.0, 0.0, 0.0, 1.715163480106053E9, 0.0, 2024-05-08 13:18:00.106
43.0, 24601.71575566718, 0.0, 0.0, 0.0, 0.0, 0.0, 0.0, 0.0, 0.094, -0.04, 0.986, 192.0, 0.0, 0.0, 0.0, 0.0, 0.0, 0.0, 0.0, 0.0, 0.0, 1.715163480106078E9, 0.0, 2024-05-08 13:18:00.106
44.0, 26417.213847305044, 0.0, 0.0, 0.0, 0.0, 0.0, 0.0, 0.0, 0.094, -0.04, 0.986, 192.0, 0.0, 0.0, 0.0, 0.0, 0.0, 0.0, 0.0, 0.0, 0.0, 1.7151634801061113E9, 0.0, 2024-05-08 13:18:00.106
45.0, 29084.26869920119, 0.0, 0.0, 0.0, 0.0, 0.0, 0.0, 0.0, 0.094, -0.04, 0.986, 192.0, 0.0, 0.0, 0.0, 0.0, 0.0, 0.0, 0.0, 0.0, 0.0, 1.715163480106136E9, 0.0, 2024-05-08 13:18:00.106
46.0, 31696.74059113748, 0.0, 0.0, 0.0, 0.0, 0.0, 0.0, 0.0, 0.094, -0.04, 0.986, 192.0, 0.0, 0.0, 0.0, 0.0, 0.0, 0.0, 0.0, 0.0, 0.0, 1.7151634801061597E9, 0.0, 2024-05-08 13:18:00.106
47.0, 32968.688961111184, 0.0, 0.0, 0.0, 0.0, 0.0, 0.0, 0.0, 0.094, -0.04, 0.986, 192.0, 0.0, 0.0, 0.0, 0.0, 0.0, 0.0, 0.0, 0.0, 0.0, 1.7151634801061828E9, 0.0, 2024-05-08 13:18:00.106
48.0, 32382.805035448677, 0.0, 0.0, 0.0, 0.0, 0.0, 0.0, 0.0, 0.094, -0.04, 0.986, 192.0, 0.0, 0.0, 0.0, 0.0, 0.0, 0.0, 0.0, 0.0, 0.0, 1.7151634801062064E9, 0.0, 2024-05-08 13:18:00.106
49.0, 31879.756674737535, 0.0, 0.0, 0.0, 0.0, 0.0, 0.0, 0.0, 0.094, -0.04, 0.986, 192.0, 0.0, 0.0, 0.0, 0.0, 0.0, 0.0, 0.0, 0.0, 0.0, 1.7151634801062298E9, 0.0, 2024-05-08 13:18:00.106
50.0, 32540.563647814233, 0.0, 0.0, 0.0, 0.0, 0.0, 0.0, 0.0, 0.094, -0.04, 0.986, 192.0, 0.0, 0.0, 0.0, 0.0, 0.0, 0.0, 0.0, 0.0, 0.0, 1.7151634801062567E9, 0.0, 2024-05-08 13:18:00.106
51.0, 33568.16274740252, 0.0, 0.0, 0.0, 0.0, 0.0, 0.0, 0.0, 0.096, -0.044, 0.99, 192.0, 3.0, 0.0, 254.0, 160.0, 30.0, 240.0, 0.0, 0.0, 0.0, 1.7151634801062796E9, 0.0, 2024-05-08 13:18:00.106
52.0, 33601.89152978558, 0.0, 0.0, 0.0, 0.0, 0.0, 0.0, 0.0, 0.096, -0.044, 0.99, 192.0, 0.0, 0.0, 0.0, 0.0, 0.0, 0.0, 0.0, 0.0, 0.0, 1.715163480106304E9, 0.0, 2024-05-08 13:18:00.106
53.0, 32112.058354861543, 0.0, 0.0, 0.0, 0.0, 0.0, 0.0, 0.0, 0.096, -0.044, 0.99, 192.0, 0.0, 0.0, 0.0, 0.0, 0.0, 0.0, 0.0, 0.0, 0.0, 1.7151634801063285E9, 0.0, 2024-05-08 13:18:00.106
54.0, 30988.48086458217, 0.0, 0.0, 0.0, 0.0, 0.0, 0.0, 0.0, 0.096, -0.044, 0.99, 192.0, 0.0, 0.0, 0.0, 0.0, 0.0, 0.0, 0.0, 0.0, 0.0, 1.7151634801063533E9, 0.0, 2024-05-08 13:18:00.106
55.0, 31204.398716020434, 0.0, 0.0, 0.0, 0.0, 0.0, 0.0, 0.0, 0.096, -0.044, 0.99, 192.0, 0.0, 0.0, 0.0, 0.0, 0.0, 0.0, 0.0, 0.0, 0.0, 1.7151634801063788E9, 0.0, 2024-05-08 13:18:00.106
56.0, 31955.32792274093, 0.0, 0.0, 0.0, 0.0, 0.0, 0.0, 0.0, 0.096, -0.044, 0.99, 192.0, 0.0, 0.0, 0.0, 0.0, 0.0, 0.0, 0.0, 0.0, 0.0, 1.715163480106403E9, 0.0, 2024-05-08 13:18:00.106
57.0, 31793.277775439954, 0.0, 0.0, 0.0, 0.0, 0.0, 0.0, 0.0, 0.096, -0.044, 0.99, 192.0, 0.0, 0.0, 0.0, 0.0, 0.0, 0.0, 0.0, 0.0, 0.0, 1.7151634801064277E9, 0.0, 2024-05-08 13:18:00.106
58.0, 30274.074408301643, 0.0, 0.0, 0.0, 0.0, 0.0, 0.0, 0.0, 0.096, -0.044, 0.99, 192.0, 0.0, 0.0, 0.0, 0.0, 0.0, 0.0, 0.0, 0.0, 0.0, 1.715163480106454E9, 0.0, 2024-05-08 13:18:00.106
59.0, 29163.706798995354, 0.0, 0.0, 0.0, 0.0, 0.0, 0.0, 0.0, 0.096, -0.044, 0.99, 192.0, 0.0, 0.0, 0.0, 0.0, 0.0, 0.0, 0.0, 0.0, 0.0, 1.715163480106479E9, 0.0, 2024-05-08 13:18:00.106
60.0, 29422.562351532266, 0.0, 0.0, 0.0, 0.0, 0.0, 0.0, 0.0, 0.096, -0.044, 0.99, 192.0, 0.0, 0.0, 0.0, 0.0, 0.0, 0.0, 0.0, 0.0, 0.0, 1.7151634801065228E9, 0.0, 2024-05-08 13:18:00.106
61.0, 30226.845172267578, 0.0, 0.0, 0.0, 0.0, 0.0, 0.0, 0.0, 0.094, -0.046, 0.988, 192.0, 2.0, 240.0, 254.0, 144.0, 30.0, 224.0, 0.0, 0.0, 0.0, 1.7151634801065464E9, 0.0, 2024-05-08 13:18:00.106
62.0, 30120.517923893683, 0.0, 0.0, 0.0, 0.0, 0.0, 0.0, 0.0, 0.094, -0.046, 0.988, 192.0, 0.0, 0.0, 0.0, 0.0, 0.0, 0.0, 0.0, 0.0, 0.0, 1.7151634801065707E9, 0.0, 2024-05-08 13:18:00.106
63.0, 28556.007570744467, 0.0, 0.0, 0.0, 0.0, 0.0, 0.0, 0.0, 0.094, -0.046, 0.988, 192.0, 0.0, 0.0, 0.0, 0.0, 0.0, 0.0, 0.0, 0.0, 0.0, 1.7151634801065965E9, 0.0, 2024-05-08 13:18:00.106
64.0, 27303.01348006886, 0.0, 0.0, 0.0, 0.0, 0.0, 0.0, 0.0, 0.094, -0.046, 0.988, 192.0, 0.0, 0.0, 0.0, 0.0, 0.0, 0.0, 0.0, 0.0, 0.0, 1.7151634801066198E9, 0.0, 2024-05-08 13:18:00.106
65.0, 27426.19394376206, 0.0, 0.0, 0.0, 0.0, 0.0, 0.0, 0.0, 0.094, -0.046, 0.988, 192.0, 0.0, 0.0, 0.0, 0.0, 0.0, 0.0, 0.0, 0.0, 0.0, 1.7151634801066432E9, 0.0, 2024-05-08 13:18:00.106
66.0, 28024.617198063996, 0.0, 0.0, 0.0, 0.0, 0.0, 0.0, 0.0, 0.094, -0.046, 0.988, 192.0, 0.0, 0.0, 0.0, 0.0, 0.0, 0.0, 0.0, 0.0, 0.0, 1.7151634801066675E9, 0.0, 2024-05-08 13:18:00.106
67.0, 27727.406052041777, 0.0, 0.0, 0.0, 0.0, 0.0, 0.0, 0.0, 0.094, -0.046, 0.988, 192.0, 0.0, 0.0, 0.0, 0.0, 0.0, 0.0, 0.0, 0.0, 0.0, 1.71516348010669E9, 0.0, 2024-05-08 13:18:00.106
68.0, 25925.47546928829, 0.0, 0.0, 0.0, 0.0, 0.0, 0.0, 0.0, 0.094, -0.046, 0.988, 192.0, 0.0, 0.0, 0.0, 0.0, 0.0, 0.0, 0.0, 0.0, 0.0, 1.7151634801067119E9, 0.0, 2024-05-08 13:18:00.106
69.0, 24410.45187836312, 0.0, 0.0, 0.0, 0.0, 0.0, 0.0, 0.0, 0.094, -0.046, 0.988, 192.0, 0.0, 0.0, 0.0, 0.0, 0.0, 0.0, 0.0, 0.0, 0.0, 1.7151634801067371E9, 0.0, 2024-05-08 13:18:00.106
70.0, 24198.534989182353, 0.0, 0.0, 0.0, 0.0, 0.0, 0.0, 0.0, 0.094, -0.046, 0.988, 192.0, 0.0, 0.0, 0.0, 0.0, 0.0, 0.0, 0.0, 0.0, 0.0, 1.7151634801067588E9, 0.0, 2024-05-08 13:18:00.106
71.0, 24490.202902579655, 0.0, 0.0, 0.0, 0.0, 0.0, 0.0, 0.0, 0.09, -0.04, 0.988, 192.0, 2.0, 208.0, 254.0, 192.0, 30.0, 224.0, 0.0, 0.0, 0.0, 1.7151634801067803E9, 0.0, 2024-05-08 13:18:00.106
72.0, 23740.03365517064, 0.0, 0.0, 0.0, 0.0, 0.0, 0.0, 0.0, 0.09, -0.04, 0.988, 192.0, 0.0, 0.0, 0.0, 0.0, 0.0, 0.0, 0.0, 0.0, 0.0, 1.7151634801068027E9, 0.0, 2024-05-08 13:18:00.106
73.0, 21475.846645336944, 0.0, 0.0, 0.0, 0.0, 0.0, 0.0, 0.0, 0.09, -0.04, 0.988, 192.0, 0.0, 0.0, 0.0, 0.0, 0.0, 0.0, 0.0, 0.0, 0.0, 1.715163480106824E9, 0.0, 2024-05-08 13:18:00.106
74.0, 19582.74329695026, 0.0, 0.0, 0.0, 0.0, 0.0, 0.0, 0.0, 0.09, -0.04, 0.988, 192.0, 0.0, 0.0, 0.0, 0.0, 0.0, 0.0, 0.0, 0.0, 0.0, 1.7151634801068454E9, 0.0, 2024-05-08 13:18:00.106
75.0, 19108.282817397456, 0.0, 0.0, 0.0, 0.0, 0.0, 0.0, 0.0, 0.09, -0.04, 0.988, 192.0, 0.0, 0.0, 0.0, 0.0, 0.0, 0.0, 0.0, 0.0, 0.0, 1.71516348010687E9, 0.0, 2024-05-08 13:18:00.106
76.0, 19302.34066275843, 0.0, 0.0, 0.0, 0.0, 0.0, 0.0, 0.0, 0.09, -0.04, 0.988, 192.0, 0.0, 0.0, 0.0, 0.0, 0.0, 0.0, 0.0, 0.0, 0.0, 1.7151634801068923E9, 0.0, 2024-05-08 13:18:00.106
77.0, 18745.983391521382, 0.0, 0.0, 0.0, 0.0, 0.0, 0.0, 0.0, 0.09, -0.04, 0.988, 192.0, 0.0, 0.0, 0.0, 0.0, 0.0, 0.0, 0.0, 0.0, 0.0, 1.7151634801069753E9, 0.0, 2024-05-08 13:18:00.106
78.0, 16808.08714724626, 0.0, 0.0, 0.0, 0.0, 0.0, 0.0, 0.0, 0.09, -0.04, 0.988, 192.0, 0.0, 0.0, 0.0, 0.0, 0.0, 0.0, 0.0, 0.0, 0.0, 1.7151634801069987E9, 0.0, 2024-05-08 13:18:00.106
79.0, 15225.382474110422, 0.0, 0.0, 0.0, 0.0, 0.0, 0.0, 0.0, 0.09, -0.04, 0.988, 192.0, 0.0, 0.0, 0.0, 0.0, 0.0, 0.0, 0.0, 0.0, 0.0, 1.715163480107024E9, 0.0, 2024-05-08 13:18:00.107
80.0, 14992.63375909731, 0.0, 0.0, 0.0, 0.0, 0.0, 0.0, 0.0, 0.09, -0.04, 0.988, 192.0, 0.0, 0.0, 0.0, 0.0, 0.0, 0.0, 0.0, 0.0, 0.0, 1.715163480107049E9, 0.0, 2024-05-08 13:18:00.107
81.0, 15344.94195520186, 0.0, 0.0, 0.0, 0.0, 0.0, 0.0, 0.0, 0.09, -0.038, 0.986, 192.0, 2.0, 208.0, 254.0, 208.0, 30.0, 208.0, 0.0, 0.0, 0.0, 1.7151634801070719E9, 0.0, 2024-05-08 13:18:00.107
82.0, 14831.522385063457, 0.0, 0.0, 0.0, 0.0, 0.0, 0.0, 0.0, 0.09, -0.038, 0.986, 192.0, 0.0, 0.0, 0.0, 0.0, 0.0, 0.0, 0.0, 0.0, 0.0, 1.7151634801071067E9, 0.0, 2024-05-08 13:18:00.107
83.0, 12907.081890950429, 0.0, 0.0, 0.0, 0.0, 0.0, 0.0, 0.0, 0.09, -0.038, 0.986, 192.0, 0.0, 0.0, 0.0, 0.0, 0.0, 0.0, 0.0, 0.0, 0.0, 1.7151634801071427E9, 0.0, 2024-05-08 13:18:00.107
84.0, 11297.599827957134, 0.0, 0.0, 0.0, 0.0, 0.0, 0.0, 0.0, 0.09, -0.038, 0.986, 192.0, 0.0, 0.0, 0.0, 0.0, 0.0, 0.0, 0.0, 0.0, 0.0, 1.71516348010717E9, 0.0, 2024-05-08 13:18:00.107
85.0, 11086.152325409928, 0.0, 0.0, 0.0, 0.0, 0.0, 0.0, 0.0, 0.09, -0.038, 0.986, 192.0, 0.0, 0.0, 0.0, 0.0, 0.0, 0.0, 0.0, 0.0, 0.0, 1.715163480107196E9, 0.0, 2024-05-08 13:18:00.107
86.0, 11526.19111850156, 0.0, 0.0, 0.0, 0.0, 0.0, 0.0, 0.0, 0.09, -0.038, 0.986, 192.0, 0.0, 0.0, 0.0, 0.0, 0.0, 0.0, 0.0, 0.0, 0.0, 1.7151634801072211E9, 0.0, 2024-05-08 13:18:00.107
87.0, 11135.10264576705, 0.0, 0.0, 0.0, 0.0, 0.0, 0.0, 0.0, 0.09, -0.038, 0.986, 192.0, 0.0, 0.0, 0.0, 0.0, 0.0, 0.0, 0.0, 0.0, 0.0, 1.7151634801072464E9, 0.0, 2024-05-08 13:18:00.107
88.0, 9282.03127169982, 0.0, 0.0, 0.0, 0.0, 0.0, 0.0, 0.0, 0.09, -0.038, 0.986, 192.0, 0.0, 0.0, 0.0, 0.0, 0.0, 0.0, 0.0, 0.0, 0.0, 1.7151634801072721E9, 0.0, 2024-05-08 13:18:00.107
89.0, 7755.585939357989, 0.0, 0.0, 0.0, 0.0, 0.0, 0.0, 0.0, 0.09, -0.038, 0.986, 192.0, 0.0, 0.0, 0.0, 0.0, 0.0, 0.0, 0.0, 0.0, 0.0, 1.7151634801072958E9, 0.0, 2024-05-08 13:18:00.107
90.0, 7638.08281875644, 0.0, 0.0, 0.0, 0.0, 0.0, 0.0, 0.0, 0.09, -0.038, 0.986, 192.0, 0.0, 0.0, 0.0, 0.0, 0.0, 0.0, 0.0, 0.0, 0.0, 1.7151634801073184E9, 0.0, 2024-05-08 13:18:00.107
91.0, 8193.434261493, 0.0, 0.0, 0.0, 0.0, 0.0, 0.0, 0.0, 0.098, -0.04, 0.988, 192.0, 3.0, 16.0, 254.0, 192.0, 30.0, 224.0, 0.0, 0.0, 0.0, 1.7151634801073415E9, 0.0, 2024-05-08 13:18:00.107
92.0, 7990.368663116535, 0.0, 0.0, 0.0, 0.0, 0.0, 0.0, 0.0, 0.098, -0.04, 0.988, 192.0, 0.0, 0.0, 0.0, 0.0, 0.0, 0.0, 0.0, 0.0, 0.0, 1.7151634801073663E9, 0.0, 2024-05-08 13:18:00.107
93.0, 6381.713614668085, 0.0, 0.0, 0.0, 0.0, 0.0, 0.0, 0.0, 0.098, -0.04, 0.988, 192.0, 0.0, 0.0, 0.0, 0.0, 0.0, 0.0, 0.0, 0.0, 0.0, 1.7151634801073904E9, 0.0, 2024-05-08 13:18:00.107
94.0, 5132.832244972258, 0.0, 0.0, 0.0, 0.0, 0.0, 0.0, 0.0, 0.098, -0.04, 0.988, 192.0, 0.0, 0.0, 0.0, 0.0, 0.0, 0.0, 0.0, 0.0, 0.0, 1.7151634801074176E9, 0.0, 2024-05-08 13:18:00.107
95.0, 5301.364398165274, 0.0, 0.0, 0.0, 0.0, 0.0, 0.0, 0.0, 0.098, -0.04, 0.988, 192.0, 0.0, 0.0, 0.0, 0.0, 0.0, 0.0, 0.0, 0.0, 0.0, 1.715163480107548E9, 0.0, 2024-05-08 13:18:00.107
96.0, 6193.869554265685, 0.0, 0.0, 0.0, 0.0, 0.0, 0.0, 0.0, 0.098, -0.04, 0.988, 192.0, 0.0, 0.0, 0.0, 0.0, 0.0, 0.0, 0.0, 0.0, 0.0, 1.71516348010757E9, 0.0, 2024-05-08 13:18:00.107
97.0, 6292.418395569133, 0.0, 0.0, 0.0, 0.0, 0.0, 0.0, 0.0, 0.098, -0.04, 0.988, 192.0, 0.0, 0.0, 0.0, 0.0, 0.0, 0.0, 0.0, 0.0, 0.0, 1.7151634801075916E9, 0.0, 2024-05-08 13:18:00.107
98.0, 4971.050318604746, 0.0, 0.0, 0.0, 0.0, 0.0, 0.0, 0.0, 0.098, -0.04, 0.988, 192.0, 0.0, 0.0, 0.0, 0.0, 0.0, 0.0, 0.0, 0.0, 0.0, 1.715163480107615E9, 0.0, 2024-05-08 13:18:00.107
99.0, 3909.1636430220183, 0.0, 0.0, 0.0, 0.0, 0.0, 0.0, 0.0, 0.098, -0.04, 0.988, 192.0, 0.0, 0.0, 0.0, 0.0, 0.0, 0.0, 0.0, 0.0, 0.0, 1.7151634801076372E9, 0.0, 2024-05-08 13:18:00.107
100.0, 4195.578896472322, 0.0, 0.0, 0.0, 0.0, 0.0, 0.0, 0.0, 0.098, -0.04, 0.988, 192.0, 0.0, 0.0, 0.0, 0.0, 0.0, 0.0, 0.0, 0.0, 0.0, 1.715163480107668E9, 0.0, 2024-05-08 13:18:00.107
101.0, 5163.141210453655, 0.0, 0.0, 0.0, 0.0, 0.0, 0.0, 0.0, 0.092, -0.042, 0.986, 192.0, 2.0, 224.0, 254.0, 176.0, 30.0, 208.0, 0.0, 0.0, 0.0, 1.7151634801076937E9, 0.0, 2024-05-08 13:18:00.107
102.0, 5356.461448247605, 0.0, 0.0, 0.0, 0.0, 0.0, 0.0, 0.0, 0.092, -0.042, 0.986, 192.0, 0.0, 0.0, 0.0, 0.0, 0.0, 0.0, 0.0, 0.0, 0.0, 1.7151634801077237E9, 0.0, 2024-05-08 13:18:00.107
103.0, 3994.83787951921, 0.0, 0.0, 0.0, 0.0, 0.0, 0.0, 0.0, 0.092, -0.042, 0.986, 192.0, 0.0, 0.0, 0.0, 0.0, 0.0, 0.0, 0.0, 0.0, 0.0, 1.7151634801077504E9, 0.0, 2024-05-08 13:18:00.107
104.0, 2874.389633463578, 0.0, 0.0, 0.0, 0.0, 0.0, 0.0, 0.0, 0.092, -0.042, 0.986, 192.0, 0.0, 0.0, 0.0, 0.0, 0.0, 0.0, 0.0, 0.0, 0.0, 1.715163480107777E9, 0.0, 2024-05-08 13:18:00.107
105.0, 3277.5033447150404, 0.0, 0.0, 0.0, 0.0, 0.0, 0.0, 0.0, 0.092, -0.042, 0.986, 192.0, 0.0, 0.0, 0.0, 0.0, 0.0, 0.0, 0.0, 0.0, 0.0, 1.7151634805846272E9, 0.0, 2024-05-08 13:18:00.584
106.0, 4245.088010440828, 0.0, 0.0, 0.0, 0.0, 0.0, 0.0, 0.0, 0.092, -0.042, 0.986, 192.0, 0.0, 0.0, 0.0, 0.0, 0.0, 0.0, 0.0, 0.0, 0.0, 1.715163480584698E9, 0.0, 2024-05-08 13:18:00.584
107.0, 4441.090457569416, 0.0, 0.0, 0.0, 0.0, 0.0, 0.0, 0.0, 0.092, -0.042, 0.986, 192.0, 0.0, 0.0, 0.0, 0.0, 0.0, 0.0, 0.0, 0.0, 0.0, 1.715163480584737E9, 0.0, 2024-05-08 13:18:00.584
108.0, 3166.593988727807, 0.0, 0.0, 0.0, 0.0, 0.0, 0.0, 0.0, 0.092, -0.042, 0.986, 192.0, 0.0, 0.0, 0.0, 0.0, 0.0, 0.0, 0.0, 0.0, 0.0, 1.7151634805847733E9, 0.0, 2024-05-08 13:18:00.584
109.0, 2171.896656977732, 0.0, 0.0, 0.0, 0.0, 0.0, 0.0, 0.0, 0.092, -0.042, 0.986, 192.0, 0.0, 0.0, 0.0, 0.0, 0.0, 0.0, 0.0, 0.0, 0.0, 1.7151634805847967E9, 0.0, 2024-05-08 13:18:00.584
110.0, 2516.269983800648, 0.0, 0.0, 0.0, 0.0, 0.0, 0.0, 0.0, 0.092, -0.042, 0.986, 192.0, 0.0, 0.0, 0.0, 0.0, 0.0, 0.0, 0.0, 0.0, 0.0, 1.7151634805848193E9, 0.0, 2024-05-08 13:18:00.584
111.0, 3570.4900110352055, 0.0, 0.0, 0.0, 0.0, 0.0, 0.0, 0.0, 0.094, -0.044, 0.988, 192.0, 2.0, 240.0, 254.0, 160.0, 30.0, 224.0, 0.0, 0.0, 0.0, 1.7151634805848427E9, 0.0, 2024-05-08 13:18:00.584
112.0, 3914.840986113666, 0.0, 0.0, 0.0, 0.0, 0.0, 0.0, 0.0, 0.094, -0.044, 0.988, 192.0, 0.0, 0.0, 0.0, 0.0, 0.0, 0.0, 0.0, 0.0, 0.0, 1.7151634805849345E9, 0.0, 2024-05-08 13:18:00.584
113.0, 2637.1705695594037, 0.0, 0.0, 0.0, 0.0, 0.0, 0.0, 0.0, 0.094, -0.044, 0.988, 192.0, 0.0, 0.0, 0.0, 0.0, 0.0, 0.0, 0.0, 0.0, 0.0, 1.7151634805849586E9, 0.0, 2024-05-08 13:18:00.584
114.0, 1515.2918118586317, 0.0, 0.0, 0.0, 0.0, 0.0, 0.0, 0.0, 0.094, -0.044, 0.988, 192.0, 0.0, 0.0, 0.0, 0.0, 0.0, 0.0, 0.0, 0.0, 0.0, 1.7151634805849807E9, 0.0, 2024-05-08 13:18:00.584
115.0, 1793.4816233493834, 0.0, 0.0, 0.0, 0.0, 0.0, 0.0, 0.0, 0.094, -0.044, 0.988, 192.0, 0.0, 0.0, 0.0, 0.0, 0.0, 0.0, 0.0, 0.0, 0.0, 1.7151634805850027E9, 0.0, 2024-05-08 13:18:00.585
116.0, 2767.0789083336485, 0.0, 0.0, 0.0, 0.0, 0.0, 0.0, 0.0, 0.094, -0.044, 0.988, 192.0, 0.0, 0.0, 0.0, 0.0, 0.0, 0.0, 0.0, 0.0, 0.0, 1.7151634805850255E9, 0.0, 2024-05-08 13:18:00.585
117.0, 2855.792982076762, 0.0, 0.0, 0.0, 0.0, 0.0, 0.0, 0.0, 0.094, -0.044, 0.988, 192.0, 0.0, 0.0, 0.0, 0.0, 0.0, 0.0, 0.0, 0.0, 0.0, 1.7151634805851982E9, 0.0, 2024-05-08 13:18:00.585
118.0, 1570.2100479853211, 0.0, 0.0, 0.0, 0.0, 0.0, 0.0, 0.0, 0.094, -0.044, 0.988, 192.0, 0.0, 0.0, 0.0, 0.0, 0.0, 0.0, 0.0, 0.0, 0.0, 1.7151634805852275E9, 0.0, 2024-05-08 13:18:00.585
119.0, 478.3049795991158, 0.0, 0.0, 0.0, 0.0, 0.0, 0.0, 0.0, 0.094, -0.044, 0.988, 192.0, 0.0, 0.0, 0.0, 0.0, 0.0, 0.0, 0.0, 0.0, 0.0, 1.7151634805852532E9, 0.0, 2024-05-08 13:18:00.585
120.0, 686.4667757113905, 0.0, 0.0, 0.0, 0.0, 0.0, 0.0, 0.0, 0.094, -0.044, 0.988, 192.0, 0.0, 0.0, 0.0, 0.0, 0.0, 0.0, 0.0, 0.0, 0.0, 1.7151634805852776E9, 0.0, 2024-05-08 13:18:00.585
121.0, 1549.7134983198046, 0.0, 0.0, 0.0, 0.0, 0.0, 0.0, 0.0, 0.094, -0.04, 0.988, 192.0, 2.0, 240.0, 254.0, 192.0, 30.0, 224.0, 0.0, 0.0, 0.0, 1.7151634805852995E9, 0.0, 2024-05-08 13:18:00.585
122.0, 1585.2974754926533, 0.0, 0.0, 0.0, 0.0, 0.0, 0.0, 0.0, 0.094, -0.04, 0.988, 192.0, 0.0, 0.0, 0.0, 0.0, 0.0, 0.0, 0.0, 0.0, 0.0, 1.7151634805853229E9, 0.0, 2024-05-08 13:18:00.585
123.0, 129.97539400761056, 0.0, 0.0, 0.0, 0.0, 0.0, 0.0, 0.0, 0.094, -0.04, 0.988, 192.0, 0.0, 0.0, 0.0, 0.0, 0.0, 0.0, 0.0, 0.0, 0.0, 1.7151634805853443E9, 0.0, 2024-05-08 13:18:00.585
124.0, -1126.170292636191, 0.0, 0.0, 0.0, 0.0, 0.0, 0.0, 0.0, 0.094, -0.04, 0.988, 192.0, 0.0, 0.0, 0.0, 0.0, 0.0, 0.0, 0.0, 0.0, 0.0, 1.7151634805853727E9, 0.0, 2024-05-08 13:18:00.585
125.0, -1077.175268790158, 0.0, 0.0, 0.0, 0.0, 0.0, 0.0, 0.0, 0.094, -0.04, 0.988, 192.0, 0.0, 0.0, 0.0, 0.0, 0.0, 0.0, 0.0, 0.0, 0.0, 1.7151634805854E9, 0.0, 2024-05-08 13:18:00.585
126.0, -328.16831209281827, 0.0, 0.0, 0.0, 0.0, 0.0, 0.0, 0.0, 0.094, -0.04, 0.988, 192.0, 0.0, 0.0, 0.0, 0.0, 0.0, 0.0, 0.0, 0.0, 0.0, 1.7151634805854273E9, 0.0, 2024-05-08 13:18:00.585
127.0, -280.24617198063993, 0.0, 0.0, 0.0, 0.0, 0.0, 0.0, 0.0, 0.094, -0.04, 0.988, 192.0, 0.0, 0.0, 0.0, 0.0, 0.0, 0.0, 0.0, 0.0, 0.0, 1.715163480585454E9, 0.0, 2024-05-08 13:18:00.585
128.0, -1746.4759047598727, 0.0, 0.0, 0.0, 0.0, 0.0, 0.0, 0.0, 0.094, -0.04, 0.988, 192.0, 0.0, 0.0, 0.0, 0.0, 0.0, 0.0, 0.0, 0.0, 0.0, 1.7151634805855663E9, 0.0, 2024-05-08 13:18:00.585
129.0, -3088.340531389777, 0.0, 0.0, 0.0, 0.0, 0.0, 0.0, 0.0, 0.094, -0.04, 0.988, 192.0, 0.0, 0.0, 0.0, 0.0, 0.0, 0.0, 0.0, 0.0, 0.0, 1.7151634805855925E9, 0.0, 2024-05-08 13:18:00.585
130.0, -3012.0540275638136, 0.0, 0.0, 0.0, 0.0, 0.0, 0.0, 0.0, 0.094, -0.04, 0.988, 192.0, 0.0, 0.0, 0.0, 0.0, 0.0, 0.0, 0.0, 0.0, 0.0, 1.7151634805857327E9, 0.0, 2024-05-08 13:18:00.585
131.0, -2184.2124681726063, 0.0, 0.0, 0.0, 0.0, 0.0, 0.0, 0.0, 0.09, -0.038, 0.99, 192.0, 2.0, 208.0, 254.0, 208.0, 30.0, 240.0, 0.0, 0.0, 0.0, 1.7151634805857537E9, 0.0, 2024-05-08 13:18:00.585
132.0, -2099.6558188981794, 0.0, 0.0, 0.0, 0.0, 0.0, 0.0, 0.0, 0.09, -0.038, 0.99, 192.0, 0.0, 0.0, 0.0, 0.0, 0.0, 0.0, 0.0, 0.0, 0.0, 1.7151634805857735E9, 0.0, 2024-05-08 13:18:00.585
133.0, -3545.4560572452615, 0.0, 0.0, 0.0, 0.0, 0.0, 0.0, 0.0, 0.09, -0.038, 0.99, 192.0, 0.0, 0.0, 0.0, 0.0, 0.0, 0.0, 0.0, 0.0, 0.0, 1.7151634805857916E9, 0.0, 2024-05-08 13:18:00.585
134.0, -4736.044077401648, 0.0, 0.0, 0.0, 0.0, 0.0, 0.0, 0.0, 0.09, -0.038, 0.99, 192.0, 0.0, 0.0, 0.0, 0.0, 0.0, 0.0, 0.0, 0.0, 0.0, 1.715163480585811E9, 0.0, 2024-05-08 13:18:00.585
135.0, -4643.4408001233105, 0.0, 0.0, 0.0, 0.0, 0.0, 0.0, 0.0, 0.09, -0.038, 0.99, 192.0, 0.0, 0.0, 0.0, 0.0, 0.0, 0.0, 0.0, 0.0, 0.0, 1.7151634805858293E9, 0.0, 2024-05-08 13:18:00.585
136.0, -3753.9084260354552, 0.0, 0.0, 0.0, 0.0, 0.0, 0.0, 0.0, 0.09, -0.038, 0.99, 192.0, 0.0, 0.0, 0.0, 0.0, 0.0, 0.0, 0.0, 0.0, 0.0, 1.7151634805858479E9, 0.0, 2024-05-08 13:18:00.585
137.0, -3645.4801136827605, 0.0, 0.0, 0.0, 0.0, 0.0, 0.0, 0.0, 0.09, -0.038, 0.99, 192.0, 0.0, 0.0, 0.0, 0.0, 0.0, 0.0, 0.0, 0.0, 0.0, 1.7151634805858693E9, 0.0, 2024-05-08 13:18:00.585
138.0, -5097.8294131552475, 0.0, 0.0, 0.0, 0.0, 0.0, 0.0, 0.0, 0.09, -0.038, 0.99, 192.0, 0.0, 0.0, 0.0, 0.0, 0.0, 0.0, 0.0, 0.0, 0.0, 1.7151634805858867E9, 0.0, 2024-05-08 13:18:00.585
139.0, -6396.0634346083925, 0.0, 0.0, 0.0, 0.0, 0.0, 0.0, 0.0, 0.09, -0.038, 0.99, 192.0, 0.0, 0.0, 0.0, 0.0, 0.0, 0.0, 0.0, 0.0, 0.0, 1.7151634805859056E9, 0.0, 2024-05-08 13:18:00.585
140.0, -6348.677736363142, 0.0, 0.0, 0.0, 0.0, 0.0, 0.0, 0.0, 0.09, -0.038, 0.99, 192.0, 0.0, 0.0, 0.0, 0.0, 0.0, 0.0, 0.0, 0.0, 0.0, 1.7151634805859232E9, 0.0, 2024-05-08 13:18:00.585
141.0, -5413.078416952899, 0.0, 0.0, 0.0, 0.0, 0.0, 0.0, 0.0, 0.094, -0.038, 0.988, 192.0, 2.0, 240.0, 254.0, 208.0, 30.0, 224.0, 0.0, 0.0, 0.0, 1.7151634805859408E9, 0.0, 2024-05-08 13:18:00.585
142.0, -5163.252969175932, 0.0, 0.0, 0.0, 0.0, 0.0, 0.0, 0.0, 0.094, -0.038, 0.988, 192.0, 0.0, 0.0, 0.0, 0.0, 0.0, 0.0, 0.0, 0.0, 0.0, 1.7151634805859592E9, 0.0, 2024-05-08 13:18:00.585
143.0, -6447.7183160446075, 0.0, 0.0, 0.0, 0.0, 0.0, 0.0, 0.0, 0.094, -0.038, 0.988, 192.0, 0.0, 0.0, 0.0, 0.0, 0.0, 0.0, 0.0, 0.0, 0.0, 1.7151634805859768E9, 0.0, 2024-05-08 13:18:00.585
144.0, -7489.689587317656, 0.0, 0.0, 0.0, 0.0, 0.0, 0.0, 0.0, 0.094, -0.038, 0.988, 192.0, 0.0, 0.0, 0.0, 0.0, 0.0, 0.0, 0.0, 0.0, 0.0, 1.7151634805859983E9, 0.0, 2024-05-08 13:18:00.585
145.0, -7205.2859908683295, 0.0, 0.0, 0.0, 0.0, 0.0, 0.0, 0.0, 0.094, -0.038, 0.988, 192.0, 0.0, 0.0, 0.0, 0.0, 0.0, 0.0, 0.0, 0.0, 0.0, 1.7151634805860164E9, 0.0, 2024-05-08 13:18:00.586
146.0, -6106.474233445434, 0.0, 0.0, 0.0, 0.0, 0.0, 0.0, 0.0, 0.094, -0.038, 0.988, 192.0, 0.0, 0.0, 0.0, 0.0, 0.0, 0.0, 0.0, 0.0, 0.0, 1.715163480586034E9, 0.0, 2024-05-08 13:18:00.586
147.0, -5756.3118048085935, 0.0, 0.0, 0.0, 0.0, 0.0, 0.0, 0.0, 0.094, -0.038, 0.988, 192.0, 0.0, 0.0, 0.0, 0.0, 0.0, 0.0, 0.0, 0.0, 0.0, 1.715163480586072E9, 0.0, 2024-05-08 13:18:00.586
148.0, -7025.130930558555, 0.0, 0.0, 0.0, 0.0, 0.0, 0.0, 0.0, 0.094, -0.038, 0.988, 192.0, 0.0, 0.0, 0.0, 0.0, 0.0, 0.0, 0.0, 0.0, 0.0, 1.7151634805860898E9, 0.0, 2024-05-08 13:18:00.586
149.0, -8134.51506310881, 0.0, 0.0, 0.0, 0.0, 0.0, 0.0, 0.0, 0.094, -0.038, 0.988, 192.0, 0.0, 0.0, 0.0, 0.0, 0.0, 0.0, 0.0, 0.0, 0.0, 1.7151634805861073E9, 0.0, 2024-05-08 13:18:00.586
150.0, -7938.3114502801245, 0.0, 0.0, 0.0, 0.0, 0.0, 0.0, 0.0, 0.094, -0.038, 0.988, 192.0, 0.0, 0.0, 0.0, 0.0, 0.0, 0.0, 0.0, 0.0, 0.0, 1.7151634805861266E9, 0.0, 2024-05-08 13:18:00.586
151.0, -6944.083505163611, 0.0, 0.0, 0.0, 0.0, 0.0, 0.0, 0.0, 0.096, -0.032, 0.984, 192.0, 3.0, 0.0, 255.0, 0.0, 30.0, 192.0, 0.0, 0.0, 0.0, 1.7151634805861444E9, 0.0, 2024-05-08 13:18:00.586
152.0, -6654.494304000653, 0.0, 0.0, 0.0, 0.0, 0.0, 0.0, 0.0, 0.096, -0.032, 0.984, 192.0, 0.0, 0.0, 0.0, 0.0, 0.0, 0.0, 0.0, 0.0, 0.0, 1.7151634805861616E9, 0.0, 2024-05-08 13:18:00.586
153.0, -7859.298033630614, 0.0, 0.0, 0.0, 0.0, 0.0, 0.0, 0.0, 0.096, -0.032, 0.984, 192.0, 0.0, 0.0, 0.0, 0.0, 0.0, 0.0, 0.0, 0.0, 0.0, 1.7151634805861788E9, 0.0, 2024-05-08 13:18:00.586
154.0, -8977.44405000735, 0.0, 0.0, 0.0, 0.0, 0.0, 0.0, 0.0, 0.096, -0.032, 0.984, 192.0, 0.0, 0.0, 0.0, 0.0, 0.0, 0.0, 0.0, 0.0, 0.0, 1.7151634805861967E9, 0.0, 2024-05-08 13:18:00.586
155.0, -8736.022858145578, 0.0, 0.0, 0.0, 0.0, 0.0, 0.0, 0.0, 0.096, -0.032, 0.984, 192.0, 0.0, 0.0, 0.0, 0.0, 0.0, 0.0, 0.0, 0.0, 0.0, 1.7151634805862143E9, 0.0, 2024-05-08 13:18:00.586
156.0, -7596.732091514122, 0.0, 0.0, 0.0, 0.0, 0.0, 0.0, 0.0, 0.096, -0.032, 0.984, 192.0, 0.0, 0.0, 0.0, 0.0, 0.0, 0.0, 0.0, 0.0, 0.0, 1.715163480586233E9, 0.0, 2024-05-08 13:18:00.586
157.0, -7016.078474054155, 0.0, 0.0, 0.0, 0.0, 0.0, 0.0, 0.0, 0.096, -0.032, 0.984, 192.0, 0.0, 0.0, 0.0, 0.0, 0.0, 0.0, 0.0, 0.0, 0.0, 1.7151634805862637E9, 0.0, 2024-05-08 13:18:00.586
158.0, -8234.539119546309, 0.0, 0.0, 0.0, 0.0, 0.0, 0.0, 0.0, 0.096, -0.032, 0.984, 192.0, 0.0, 0.0, 0.0, 0.0, 0.0, 0.0, 0.0, 0.0, 0.0, 1.7151634805862813E9, 0.0, 2024-05-08 13:18:00.586
159.0, -9265.870960458633, 0.0, 0.0, 0.0, 0.0, 0.0, 0.0, 0.0, 0.096, -0.032, 0.984, 192.0, 0.0, 0.0, 0.0, 0.0, 0.0, 0.0, 0.0, 0.0, 0.0, 1.7151634805862992E9, 0.0, 2024-05-08 13:18:00.586
160.0, -8813.60576314995, 0.0, 0.0, 0.0, 0.0, 0.0, 0.0, 0.0, 0.096, -0.032, 0.984, 192.0, 0.0, 0.0, 0.0, 0.0, 0.0, 0.0, 0.0, 0.0, 0.0, 1.7151634805863187E9, 0.0, 2024-05-08 13:18:00.586
161.0, -7613.026513222041, 0.0, 0.0, 0.0, 0.0, 0.0, 0.0, 0.0, 0.096, -0.036000000000000004, 0.992, 192.0, 3.0, 0.0, 254.0, 224.0, 31.0, 0.0, 0.0, 0.0, 0.0, 1.7151634805863369E9, 0.0, 2024-05-08 13:18:00.586
162.0, -7145.65153666157, 0.0, 0.0, 0.0, 0.0, 0.0, 0.0, 0.0, 0.096, -0.036000000000000004, 0.992, 192.0, 0.0, 0.0, 0.0, 0.0, 0.0, 0.0, 0.0, 0.0, 0.0, 1.7151634805863566E9, 0.0, 2024-05-08 13:18:00.586
163.0, -8298.68862613304, 0.0, 0.0, 0.0, 0.0, 0.0, 0.0, 0.0, 0.096, -0.036000000000000004, 0.992, 192.0, 0.0, 0.0, 0.0, 0.0, 0.0, 0.0, 0.0, 0.0, 0.0, 1.7151634805863743E9, 0.0, 2024-05-08 13:18:00.586
164.0, -9116.47190051936, 0.0, 0.0, 0.0, 0.0, 0.0, 0.0, 0.0, 0.096, -0.036000000000000004, 0.992, 192.0, 0.0, 0.0, 0.0, 0.0, 0.0, 0.0, 0.0, 0.0, 0.0, 1.7151634805863917E9, 0.0, 2024-05-08 13:18:00.586
165.0, -8657.769400807549, 0.0, 0.0, 0.0, 0.0, 0.0, 0.0, 0.0, 0.096, -0.036000000000000004, 0.992, 192.0, 0.0, 0.0, 0.0, 0.0, 0.0, 0.0, 0.0, 0.0, 0.0, 1.7151634805864203E9, 0.0, 2024-05-08 13:18:00.586
166.0, -7343.509178579949, 0.0, 0.0, 0.0, 0.0, 0.0, 0.0, 0.0, 0.096, -0.036000000000000004, 0.992, 192.0, 0.0, 0.0, 0.0, 0.0, 0.0, 0.0, 0.0, 0.0, 0.0, 1.7151634805864391E9, 0.0, 2024-05-08 13:18:00.586
167.0, -6924.838653187591, 0.0, 0.0, 0.0, 0.0, 0.0, 0.0, 0.0, 0.096, -0.036000000000000004, 0.992, 192.0, 0.0, 0.0, 0.0, 0.0, 0.0, 0.0, 0.0, 0.0, 0.0, 1.715163480586457E9, 0.0, 2024-05-08 13:18:00.586
168.0, -8254.722744789451, 0.0, 0.0, 0.0, 0.0, 0.0, 0.0, 0.0, 0.096, -0.036000000000000004, 0.992, 192.0, 0.0, 0.0, 0.0, 0.0, 0.0, 0.0, 0.0, 0.0, 0.0, 1.7151634805864775E9, 0.0, 2024-05-08 13:18:00.586
169.0, -9524.212422873072, 0.0, 0.0, 0.0, 0.0, 0.0, 0.0, 0.0, 0.096, -0.036000000000000004, 0.992, 192.0, 0.0, 0.0, 0.0, 0.0, 0.0, 0.0, 0.0, 0.0, 0.0, 1.7151634805865006E9, 0.0, 2024-05-08 13:18:00.586
170.0, -9335.697810137011, 0.0, 0.0, 0.0, 0.0, 0.0, 0.0, 0.0, 0.096, -0.036000000000000004, 0.992, 192.0, 0.0, 0.0, 0.0, 0.0, 0.0, 0.0, 0.0, 0.0, 0.0, 1.7151634805865345E9, 0.0, 2024-05-08 13:18:00.586
171.0, -8283.467088158975, 0.0, 0.0, 0.0, 0.0, 0.0, 0.0, 0.0, 0.096, -0.04, 0.99, 192.0, 3.0, 0.0, 254.0, 192.0, 30.0, 240.0, 0.0, 0.0, 0.0, 1.715163480586557E9, 0.0, 2024-05-08 13:18:00.586
172.0, -7885.047243243128, 0.0, 0.0, 0.0, 0.0, 0.0, 0.0, 0.0, 0.096, -0.04, 0.99, 192.0, 0.0, 0.0, 0.0, 0.0, 0.0, 0.0, 0.0, 0.0, 0.0, 1.7151634805865805E9, 0.0, 2024-05-08 13:18:00.586
173.0, -9076.059946544165, 0.0, 0.0, 0.0, 0.0, 0.0, 0.0, 0.0, 0.096, -0.04, 0.99, 192.0, 0.0, 0.0, 0.0, 0.0, 0.0, 0.0, 0.0, 0.0, 0.0, 1.7151634805866032E9, 0.0, 2024-05-08 13:18:00.586
174.0, -10213.629628852563, 0.0, 0.0, 0.0, 0.0, 0.0, 0.0, 0.0, 0.096, -0.04, 0.99, 192.0, 0.0, 0.0, 0.0, 0.0, 0.0, 0.0, 0.0, 0.0, 0.0, 1.7151634805866246E9, 0.0, 2024-05-08 13:18:00.586
175.0, -9943.531148854632, 0.0, 0.0, 0.0, 0.0, 0.0, 0.0, 0.0, 0.096, -0.04, 0.99, 192.0, 0.0, 0.0, 0.0, 0.0, 0.0, 0.0, 0.0, 0.0, 0.0, 1.7151634805866475E9, 0.0, 2024-05-08 13:18:00.586
176.0, -8695.320331492465, 0.0, 0.0, 0.0, 0.0, 0.0, 0.0, 0.0, 0.096, -0.04, 0.99, 192.0, 0.0, 0.0, 0.0, 0.0, 0.0, 0.0, 0.0, 0.0, 0.0, 1.715163480586668E9, 0.0, 2024-05-08 13:18:00.586
177.0, -8061.961300606883, 0.0, 0.0, 0.0, 0.0, 0.0, 0.0, 0.0, 0.096, -0.04, 0.99, 192.0, 0.0, 0.0, 0.0, 0.0, 0.0, 0.0, 0.0, 0.0, 0.0, 1.7151634805866892E9, 0.0, 2024-05-08 13:18:00.586
178.0, -9072.818943598146, 0.0, 0.0, 0.0, 0.0, 0.0, 0.0, 0.0, 0.096, -0.04, 0.99, 192.0, 0.0, 0.0, 0.0, 0.0, 0.0, 0.0, 0.0, 0.0, 0.0, 1.7151634805867102E9, 0.0, 2024-05-08 13:18:00.586
179.0, -10129.072979578135, 0.0, 0.0, 0.0, 0.0, 0.0, 0.0, 0.0, 0.096, -0.04, 0.99, 192.0, 0.0, 0.0, 0.0, 0.0, 0.0, 0.0, 0.0, 0.0, 0.0, 1.7151634805867312E9, 0.0, 2024-05-08 13:18:00.586
180.0, -9853.453618699745, 0.0, 0.0, 0.0, 0.0, 0.0, 0.0, 0.0, 0.096, -0.04, 0.99, 192.0, 0.0, 0.0, 0.0, 0.0, 0.0, 0.0, 0.0, 0.0, 0.0, 1.715163480586753E9, 0.0, 2024-05-08 13:18:00.586
181.0, -8508.72796877956, 0.0, 0.0, 0.0, 0.0, 0.0, 0.0, 0.0, 0.088, -0.038, 0.992, 192.0, 2.0, 192.0, 254.0, 208.0, 31.0, 0.0, 0.0, 0.0, 0.0, 1.7151634805867758E9, 0.0, 2024-05-08 13:18:00.586
182.0, -7952.057773120138, 0.0, 0.0, 0.0, 0.0, 0.0, 0.0, 0.0, 0.088, -0.038, 0.992, 192.0, 0.0, 0.0, 0.0, 0.0, 0.0, 0.0, 0.0, 0.0, 0.0, 1.7151634805868213E9, 0.0, 2024-05-08 13:18:00.586
183.0, -9156.883854494556, 0.0, 0.0, 0.0, 0.0, 0.0, 0.0, 0.0, 0.088, -0.038, 0.992, 192.0, 0.0, 0.0, 0.0, 0.0, 0.0, 0.0, 0.0, 0.0, 0.0, 1.7151634805868385E9, 0.0, 2024-05-08 13:18:00.586
184.0, -10374.472781952953, 0.0, 0.0, 0.0, 0.0, 0.0, 0.0, 0.0, 0.088, -0.038, 0.992, 192.0, 0.0, 0.0, 0.0, 0.0, 0.0, 0.0, 0.0, 0.0, 0.0, 1.715163480586856E9, 0.0, 2024-05-08 13:18:00.586
185.0, -10378.00435757689, 0.0, 0.0, 0.0, 0.0, 0.0, 0.0, 0.0, 0.088, -0.038, 0.992, 192.0, 0.0, 0.0, 0.0, 0.0, 0.0, 0.0, 0.0, 0.0, 0.0, 1.7151634805868735E9, 0.0, 2024-05-08 13:18:00.586
186.0, -9337.642411904622, 0.0, 0.0, 0.0, 0.0, 0.0, 0.0, 0.0, 0.088, -0.038, 0.992, 192.0, 0.0, 0.0, 0.0, 0.0, 0.0, 0.0, 0.0, 0.0, 0.0, 1.7151634805868912E9, 0.0, 2024-05-08 13:18:00.586
187.0, -9030.663553555436, 0.0, 0.0, 0.0, 0.0, 0.0, 0.0, 0.0, 0.088, -0.038, 0.992, 192.0, 0.0, 0.0, 0.0, 0.0, 0.0, 0.0, 0.0, 0.0, 0.0, 1.7151634805869117E9, 0.0, 2024-05-08 13:18:00.586
188.0, -10307.194031142477, 0.0, 0.0, 0.0, 0.0, 0.0, 0.0, 0.0, 0.088, -0.038, 0.992, 192.0, 0.0, 0.0, 0.0, 0.0, 0.0, 0.0, 0.0, 0.0, 0.0, 1.7151634805869288E9, 0.0, 2024-05-08 13:18:00.586
189.0, -11385.39748017758, 0.0, 0.0, 0.0, 0.0, 0.0, 0.0, 0.0, 0.088, -0.038, 0.992, 192.0, 0.0, 0.0, 0.0, 0.0, 0.0, 0.0, 0.0, 0.0, 0.0, 1.715163480586946E9, 0.0, 2024-05-08 13:18:00.586
190.0, -11034.765664907178, 0.0, 0.0, 0.0, 0.0, 0.0, 0.0, 0.0, 0.088, -0.038, 0.992, 192.0, 0.0, 0.0, 0.0, 0.0, 0.0, 0.0, 0.0, 0.0, 0.0, 1.715163480586964E9, 0.0, 2024-05-08 13:18:00.586
191.0, -9620.682551942176, 0.0, 0.0, 0.0, 0.0, 0.0, 0.0, 0.0, 0.096, -0.04, 0.992, 192.0, 3.0, 0.0, 254.0, 192.0, 31.0, 0.0, 0.0, 0.0, 0.0, 1.7151634805869813E9, 0.0, 2024-05-08 13:18:00.586
192.0, -8899.816441514069, 0.0, 0.0, 0.0, 0.0, 0.0, 0.0, 0.0, 0.096, -0.04, 0.992, 192.0, 0.0, 0.0, 0.0, 0.0, 0.0, 0.0, 0.0, 0.0, 0.0, 1.7151634805870044E9, 0.0, 2024-05-08 13:18:00.587
193.0, -10042.504673302732, 0.0, 0.0, 0.0, 0.0, 0.0, 0.0, 0.0, 0.096, -0.04, 0.992, 192.0, 0.0, 0.0, 0.0, 0.0, 0.0, 0.0, 0.0, 0.0, 0.0, 1.7151634805870252E9, 0.0, 2024-05-08 13:18:00.587
194.0, -11310.720301952399, 0.0, 0.0, 0.0, 0.0, 0.0, 0.0, 0.0, 0.096, -0.04, 0.992, 192.0, 0.0, 0.0, 0.0, 0.0, 0.0, 0.0, 0.0, 0.0, 0.0, 1.7151634805870476E9, 0.0, 2024-05-08 13:18:00.587
195.0, -11227.013018967275, 0.0, 0.0, 0.0, 0.0, 0.0, 0.0, 0.0, 0.096, -0.04, 0.992, 192.0, 0.0, 0.0, 0.0, 0.0, 0.0, 0.0, 0.0, 0.0, 0.0, 1.7151634805870683E9, 0.0, 2024-05-08 13:18:00.587
196.0, -10138.952450627381, 0.0, 0.0, 0.0, 0.0, 0.0, 0.0, 0.0, 0.096, -0.04, 0.992, 192.0, 0.0, 0.0, 0.0, 0.0, 0.0, 0.0, 0.0, 0.0, 0.0, 1.71516348058709E9, 0.0, 2024-05-08 13:18:00.587
197.0, -9744.421809246756, 0.0, 0.0, 0.0, 0.0, 0.0, 0.0, 0.0, 0.096, -0.04, 0.992, 192.0, 0.0, 0.0, 0.0, 0.0, 0.0, 0.0, 0.0, 0.0, 0.0, 1.715163480587112E9, 0.0, 2024-05-08 13:18:00.587
198.0, -11016.213717009274, 0.0, 0.0, 0.0, 0.0, 0.0, 0.0, 0.0, 0.096, -0.04, 0.992, 192.0, 0.0, 0.0, 0.0, 0.0, 0.0, 0.0, 0.0, 0.0, 0.0, 1.7151634805871344E9, 0.0, 2024-05-08 13:18:00.587
199.0, -12404.480565128395, 0.0, 0.0, 0.0, 0.0, 0.0, 0.0, 0.0, 0.096, -0.04, 0.992, 192.0, 0.0, 0.0, 0.0, 0.0, 0.0, 0.0, 0.0, 0.0, 0.0, 1.7151634805871515E9, 0.0, 2024-05-08 13:18:00.587
200.0, -12440.84685335718, 0.0, 0.0, 0.0, 0.0, 0.0, 0.0, 0.0, 0.096, -0.04, 0.992, 192.0, 0.0, 0.0, 0.0, 0.0, 0.0, 0.0, 0.0, 0.0, 0.0, 1.71516348058741E9, 0.0, 2024-05-08 13:18:00.587
201.0, -11355.379087374102, 0.0, 0.0, 0.0, 0.0, 0.0, 0.0, 0.0, 0.09, -0.036000000000000004, 0.99, 192.0, 2.0, 208.0, 254.0, 224.0, 30.0, 240.0, 0.0, 0.0, 0.0, 1.715163480587428E9, 0.0, 2024-05-08 13:18:00.587
202.0, -10773.831400135923, 0.0, 0.0, 0.0, 0.0, 0.0, 0.0, 0.0, 0.09, -0.036000000000000004, 0.99, 192.0, 0.0, 0.0, 0.0, 0.0, 0.0, 0.0, 0.0, 0.0, 0.0, 1.7151634805874467E9, 0.0, 2024-05-08 13:18:00.587
203.0, -11868.351622623399, 0.0, 0.0, 0.0, 0.0, 0.0, 0.0, 0.0, 0.09, -0.036000000000000004, 0.99, 192.0, 0.0, 0.0, 0.0, 0.0, 0.0, 0.0, 0.0, 0.0, 0.0, 1.715163480587464E9, 0.0, 2024-05-08 13:18:00.587
204.0, -12968.99622309163, 0.0, 0.0, 0.0, 0.0, 0.0, 0.0, 0.0, 0.09, -0.036000000000000004, 0.99, 192.0, 0.0, 0.0, 0.0, 0.0, 0.0, 0.0, 0.0, 0.0, 0.0, 1.715163480587494E9, 0.0, 2024-05-08 13:18:00.587
205.0, -12520.888450251634, 0.0, 0.0, 0.0, 0.0, 0.0, 0.0, 0.0, 0.09, -0.036000000000000004, 0.99, 192.0, 0.0, 0.0, 0.0, 0.0, 0.0, 0.0, 0.0, 0.0, 0.0, 1.7151634805875115E9, 0.0, 2024-05-08 13:18:00.587
206.0, -10900.990474342165, 0.0, 0.0, 0.0, 0.0, 0.0, 0.0, 0.0, 0.09, -0.036000000000000004, 0.99, 192.0, 0.0, 0.0, 0.0, 0.0, 0.0, 0.0, 0.0, 0.0, 0.0, 1.7151634805875292E9, 0.0, 2024-05-08 13:18:00.587
207.0, -9905.711997236253, 0.0, 0.0, 0.0, 0.0, 0.0, 0.0, 0.0, 0.09, -0.036000000000000004, 0.99, 192.0, 0.0, 0.0, 0.0, 0.0, 0.0, 0.0, 0.0, 0.0, 0.0, 1.7151634805875463E9, 0.0, 2024-05-08 13:18:00.587
208.0, -10772.020908835044, 0.0, 0.0, 0.0, 0.0, 0.0, 0.0, 0.0, 0.09, -0.036000000000000004, 0.99, 192.0, 0.0, 0.0, 0.0, 0.0, 0.0, 0.0, 0.0, 0.0, 0.0, 1.7151634805875635E9, 0.0, 2024-05-08 13:18:00.587
209.0, -11752.346068900355, 0.0, 0.0, 0.0, 0.0, 0.0, 0.0, 0.0, 0.09, -0.036000000000000004, 0.99, 192.0, 0.0, 0.0, 0.0, 0.0, 0.0, 0.0, 0.0, 0.0, 0.0, 1.715163480587582E9, 0.0, 2024-05-08 13:18:00.587
210.0, -11189.059756882163, 0.0, 0.0, 0.0, 0.0, 0.0, 0.0, 0.0, 0.09, -0.036000000000000004, 0.99, 192.0, 0.0, 0.0, 0.0, 0.0, 0.0, 0.0, 0.0, 0.0, 0.0, 1.715163480587608E9, 0.0, 2024-05-08 13:18:00.587
211.0, -9586.864362581297, 0.0, 0.0, 0.0, 0.0, 0.0, 0.0, 0.0, 0.092, -0.038, 0.984, 192.0, 2.0, 224.0, 254.0, 208.0, 30.0, 192.0, 0.0, 0.0, 0.0, 1.7151634805876315E9, 0.0, 2024-05-08 13:18:00.587
212.0, -8662.172694465244, 0.0, 0.0, 0.0, 0.0, 0.0, 0.0, 0.0, 0.092, -0.038, 0.984, 192.0, 0.0, 0.0, 0.0, 0.0, 0.0, 0.0, 0.0, 0.0, 0.0, 1.7151634805876548E9, 0.0, 2024-05-08 13:18:00.587
213.0, -9502.710044707066, 0.0, 0.0, 0.0, 0.0, 0.0, 0.0, 0.0, 0.092, -0.038, 0.984, 192.0, 0.0, 0.0, 0.0, 0.0, 0.0, 0.0, 0.0, 0.0, 0.0, 1.7151634805876868E9, 0.0, 2024-05-08 13:18:00.587
214.0, -10536.344115298285, 0.0, 0.0, 0.0, 0.0, 0.0, 0.0, 0.0, 0.092, -0.038, 0.984, 192.0, 0.0, 0.0, 0.0, 0.0, 0.0, 0.0, 0.0, 0.0, 0.0, 1.7151634805877085E9, 0.0, 2024-05-08 13:18:00.587
215.0, -10156.00683164678, 0.0, 0.0, 0.0, 0.0, 0.0, 0.0, 0.0, 0.092, -0.038, 0.984, 192.0, 0.0, 0.0, 0.0, 0.0, 0.0, 0.0, 0.0, 0.0, 0.0, 1.7151634805877256E9, 0.0, 2024-05-08 13:18:00.587
216.0, -8634.56829006294, 0.0, 0.0, 0.0, 0.0, 0.0, 0.0, 0.0, 0.092, -0.038, 0.984, 192.0, 0.0, 0.0, 0.0, 0.0, 0.0, 0.0, 0.0, 0.0, 0.0, 1.7151634805877428E9, 0.0, 2024-05-08 13:18:00.587
217.0, -7741.280822906593, 0.0, 0.0, 0.0, 0.0, 0.0, 0.0, 0.0, 0.092, -0.038, 0.984, 192.0, 0.0, 0.0, 0.0, 0.0, 0.0, 0.0, 0.0, 0.0, 0.0, 1.7151634805877745E9, 0.0, 2024-05-08 13:18:00.587
218.0, -8726.67982896326, 0.0, 0.0, 0.0, 0.0, 0.0, 0.0, 0.0, 0.092, -0.038, 0.984, 192.0, 0.0, 0.0, 0.0, 0.0, 0.0, 0.0, 0.0, 0.0, 0.0, 1.7151634805877917E9, 0.0, 2024-05-08 13:18:00.587
219.0, -9842.814188339018, 0.0, 0.0, 0.0, 0.0, 0.0, 0.0, 0.0, 0.092, -0.038, 0.984, 192.0, 0.0, 0.0, 0.0, 0.0, 0.0, 0.0, 0.0, 0.0, 0.0, 1.7151634805878105E9, 0.0, 2024-05-08 13:18:00.587
220.0, -9561.98687100254, 0.0, 0.0, 0.0, 0.0, 0.0, 0.0, 0.0, 0.092, -0.038, 0.984, 192.0, 0.0, 0.0, 0.0, 0.0, 0.0, 0.0, 0.0, 0.0, 0.0, 1.7151634805878277E9, 0.0, 2024-05-08 13:18:00.587
221.0, -8126.490786849355, 0.0, 0.0, 0.0, 0.0, 0.0, 0.0, 0.0, 0.088, -0.038, 0.98, 192.0, 2.0, 192.0, 254.0, 208.0, 30.0, 160.0, 0.0, 0.0, 0.0, 1.7151634805878448E9, 0.0, 2024-05-08 13:18:00.587
222.0, -7330.16518714013, 0.0, 0.0, 0.0, 0.0, 0.0, 0.0, 0.0, 0.088, -0.038, 0.98, 192.0, 0.0, 0.0, 0.0, 0.0, 0.0, 0.0, 0.0, 0.0, 0.0, 1.7151634805878625E9, 0.0, 2024-05-08 13:18:00.587
223.0, -8250.498265087399, 0.0, 0.0, 0.0, 0.0, 0.0, 0.0, 0.0, 0.088, -0.038, 0.98, 192.0, 0.0, 0.0, 0.0, 0.0, 0.0, 0.0, 0.0, 0.0, 0.0, 1.7151634805878797E9, 0.0, 2024-05-08 13:18:00.587
224.0, -9336.457769448492, 0.0, 0.0, 0.0, 0.0, 0.0, 0.0, 0.0, 0.088, -0.038, 0.98, 192.0, 0.0, 0.0, 0.0, 0.0, 0.0, 0.0, 0.0, 0.0, 0.0, 1.7151634805878973E9, 0.0, 2024-05-08 13:18:00.587
225.0, -9042.040591483188, 0.0, 0.0, 0.0, 0.0, 0.0, 0.0, 0.0, 0.088, -0.038, 0.98, 192.0, 0.0, 0.0, 0.0, 0.0, 0.0, 0.0, 0.0, 0.0, 0.0, 1.7151634810656223E9, 0.0, 2024-05-08 13:18:01.065
226.0, -7577.956626171664, 0.0, 0.0, 0.0, 0.0, 0.0, 0.0, 0.0, 0.088, -0.038, 0.98, 192.0, 0.0, 0.0, 0.0, 0.0, 0.0, 0.0, 0.0, 0.0, 0.0, 1.7151634810656888E9, 0.0, 2024-05-08 13:18:01.065
227.0, -6688.893638717371, 0.0, 0.0, 0.0, 0.0, 0.0, 0.0, 0.0, 0.088, -0.038, 0.98, 192.0, 0.0, 0.0, 0.0, 0.0, 0.0, 0.0, 0.0, 0.0, 0.0, 1.715163481065721E9, 0.0, 2024-05-08 13:18:01.065
228.0, -7614.211155678172, 0.0, 0.0, 0.0, 0.0, 0.0, 0.0, 0.0, 0.088, -0.038, 0.98, 192.0, 0.0, 0.0, 0.0, 0.0, 0.0, 0.0, 0.0, 0.0, 0.0, 1.7151634810657508E9, 0.0, 2024-05-08 13:18:01.065
229.0, -8712.173546811766, 0.0, 0.0, 0.0, 0.0, 0.0, 0.0, 0.0, 0.088, -0.038, 0.98, 192.0, 0.0, 0.0, 0.0, 0.0, 0.0, 0.0, 0.0, 0.0, 0.0, 1.7151634810657835E9, 0.0, 2024-05-08 13:18:01.065
230.0, -8332.998553871937, 0.0, 0.0, 0.0, 0.0, 0.0, 0.0, 0.0, 0.088, -0.038, 0.98, 192.0, 0.0, 0.0, 0.0, 0.0, 0.0, 0.0, 0.0, 0.0, 0.0, 1.715163481065816E9, 0.0, 2024-05-08 13:18:01.065
231.0, -6797.34430281452, 0.0, 0.0, 0.0, 0.0, 0.0, 0.0, 0.0, 0.088, -0.032, 0.984, 192.0, 2.0, 192.0, 255.0, 0.0, 30.0, 192.0, 0.0, 0.0, 0.0, 1.7151634810658429E9, 0.0, 2024-05-08 13:18:01.065
232.0, -5861.096782815073, 0.0, 0.0, 0.0, 0.0, 0.0, 0.0, 0.0, 0.088, -0.032, 0.984, 192.0, 0.0, 0.0, 0.0, 0.0, 0.0, 0.0, 0.0, 0.0, 0.0, 1.715163481065868E9, 0.0, 2024-05-08 13:18:01.065
233.0, -6745.912938822858, 0.0, 0.0, 0.0, 0.0, 0.0, 0.0, 0.0, 0.088, -0.032, 0.984, 192.0, 0.0, 0.0, 0.0, 0.0, 0.0, 0.0, 0.0, 0.0, 0.0, 1.7151634810658891E9, 0.0, 2024-05-08 13:18:01.065
234.0, -7749.170988699316, 0.0, 0.0, 0.0, 0.0, 0.0, 0.0, 0.0, 0.088, -0.032, 0.984, 192.0, 0.0, 0.0, 0.0, 0.0, 0.0, 0.0, 0.0, 0.0, 0.0, 1.7151634810659547E9, 0.0, 2024-05-08 13:18:01.065
235.0, -7308.260477573929, 0.0, 0.0, 0.0, 0.0, 0.0, 0.0, 0.0, 0.088, -0.032, 0.984, 192.0, 0.0, 0.0, 0.0, 0.0, 0.0, 0.0, 0.0, 0.0, 0.0, 1.715163481065972E9, 0.0, 2024-05-08 13:18:01.065
236.0, -5538.024668458065, 0.0, 0.0, 0.0, 0.0, 0.0, 0.0, 0.0, 0.088, -0.032, 0.984, 192.0, 0.0, 0.0, 0.0, 0.0, 0.0, 0.0, 0.0, 0.0, 0.0, 1.7151634810659893E9, 0.0, 2024-05-08 13:18:01.065
237.0, -4430.562785930966, 0.0, 0.0, 0.0, 0.0, 0.0, 0.0, 0.0, 0.088, -0.032, 0.984, 192.0, 0.0, 0.0, 0.0, 0.0, 0.0, 0.0, 0.0, 0.0, 0.0, 1.7151634810660071E9, 0.0, 2024-05-08 13:18:01.066
238.0, -5225.346115272774, 0.0, 0.0, 0.0, 0.0, 0.0, 0.0, 0.0, 0.088, -0.032, 0.984, 192.0, 0.0, 0.0, 0.0, 0.0, 0.0, 0.0, 0.0, 0.0, 0.0, 1.7151634810660245E9, 0.0, 2024-05-08 13:18:01.066
239.0, -6316.960610981061, 0.0, 0.0, 0.0, 0.0, 0.0, 0.0, 0.0, 0.088, -0.032, 0.984, 192.0, 0.0, 0.0, 0.0, 0.0, 0.0, 0.0, 0.0, 0.0, 0.0, 1.715163481066047E9, 0.0, 2024-05-08 13:18:01.066
240.0, -5979.918656339486, 0.0, 0.0, 0.0, 0.0, 0.0, 0.0, 0.0, 0.088, -0.032, 0.984, 192.0, 0.0, 0.0, 0.0, 0.0, 0.0, 0.0, 0.0, 0.0, 0.0, 1.715163481066065E9, 0.0, 2024-05-08 13:18:01.066
241.0, -4348.174255868704, 0.0, 0.0, 0.0, 0.0, 0.0, 0.0, 0.0, 0.09, -0.034, 0.98, 192.0, 2.0, 208.0, 254.0, 240.0, 30.0, 160.0, 0.0, 0.0, 0.0, 1.7151634810660825E9, 0.0, 2024-05-08 13:18:01.066
242.0, -3164.358814282276, 0.0, 0.0, 0.0, 0.0, 0.0, 0.0, 0.0, 0.09, -0.034, 0.98, 192.0, 0.0, 0.0, 0.0, 0.0, 0.0, 0.0, 0.0, 0.0, 0.0, 1.7151634810661008E9, 0.0, 2024-05-08 13:18:01.066
243.0, -3686.942599647355, 0.0, 0.0, 0.0, 0.0, 0.0, 0.0, 0.0, 0.09, -0.034, 0.98, 192.0, 0.0, 0.0, 0.0, 0.0, 0.0, 0.0, 0.0, 0.0, 0.0, 1.7151634810661185E9, 0.0, 2024-05-08 13:18:01.066
244.0, -4354.924482694207, 0.0, 0.0, 0.0, 0.0, 0.0, 0.0, 0.0, 0.09, -0.034, 0.98, 192.0, 0.0, 0.0, 0.0, 0.0, 0.0, 0.0, 0.0, 0.0, 0.0, 1.7151634810661373E9, 0.0, 2024-05-08 13:18:01.066
245.0, -3542.930310121812, 0.0, 0.0, 0.0, 0.0, 0.0, 0.0, 0.0, 0.09, -0.034, 0.98, 192.0, 0.0, 0.0, 0.0, 0.0, 0.0, 0.0, 0.0, 0.0, 0.0, 1.7151634810661564E9, 0.0, 2024-05-08 13:18:01.066
246.0, -1465.0450903231015, 0.0, 0.0, 0.0, 0.0, 0.0, 0.0, 0.0, 0.09, -0.034, 0.98, 192.0, 0.0, 0.0, 0.0, 0.0, 0.0, 0.0, 0.0, 0.0, 0.0, 1.715163481066174E9, 0.0, 2024-05-08 13:18:01.066
