%OpenBCI Raw EXG Data
%Number of channels = 8
%Sample Rate = 250 Hz
%Board = OpenBCI_GUI$BoardCytonSerial
Sample Index, EXG Channel 0, EXG Channel 1, EXG Channel 2, EXG Channel 3, EXG Channel 4, EXG Channel 5, EXG Channel 6, EXG Channel 7, Accel Channel 0, Accel Channel 1, Accel Channel 2, Other, Other, Other, Other, Other, Other, Other, Analog Channel 0, Analog Channel 1, Analog Channel 2, Timestamp, Other, Timestamp (Formatted)
152.0, -3802.9034498814885, -187500.02235174447, -187500.02235174447, -154214.51976472375, -187500.02235174447, -92976.7525764409, -187500.02235174447, -187500.02235174447, 0.0, 0.0, 0.0, 192.0, 0.0, 0.0, 0.0, 0.0, 0.0, 0.0, 0.0, 0.0, 0.0, 1.7161976317631512E9, 0.0, 2024-05-20 12:33:51.763
153.0, -3810.7712639297565, -187500.02235174447, -187500.02235174447, -154319.64001889707, -187500.02235174447, -93063.52204841639, -187500.02235174447, -187500.02235174447, 0.0, 0.0, 0.0, 192.0, 0.0, 0.0, 0.0, 0.0, 0.0, 0.0, 0.0, 0.0, 0.0, 1.716197631763193E9, 0.0, 2024-05-20 12:33:51.763
154.0, -3811.2853540522283, -187500.02235174447, -187500.02235174447, -154395.1442116671, -187500.02235174447, -93123.08944738978, -187500.02235174447, -187500.02235174447, 0.0, 0.0, 0.0, 192.0, 0.0, 0.0, 0.0, 0.0, 0.0, 0.0, 0.0, 0.0, 0.0, 1.716197631763219E9, 0.0, 2024-05-20 12:33:51.763
0.0, -2305.6494957982895, -187500.02235174447, -187500.02235174447, -187500.02235174447, -187500.02235174447, -187500.02235174447, -187500.02235174447, -187500.02235174447, 0.22, 0.06, 0.44, 192.0, 6.0, 224.0, 1.0, 224.0, 13.0, 192.0, 0.0, 0.0, 0.0, 1.7161976318465536E9, 0.0, 2024-05-20 12:33:51.846
1.0, -2308.532870833024, -187500.02235174447, -187500.02235174447, -187500.02235174447, -187500.02235174447, -187500.02235174447, -187500.02235174447, -187500.02235174447, 0.22, 0.06, 0.44, 192.0, 0.0, 0.0, 0.0, 0.0, 0.0, 0.0, 0.0, 0.0, 0.0, 1.7161976318495548E9, 0.0, 2024-05-20 12:33:51.849
2.0, -2310.7456935340992, -187500.02235174447, -187500.02235174447, -187500.02235174447, -187500.02235174447, -187500.02235174447, -187500.02235174447, -187500.02235174447, 0.22, 0.06, 0.44, 192.0, 0.0, 0.0, 0.0, 0.0, 0.0, 0.0, 0.0, 0.0, 0.0, 1.7161976318526475E9, 0.0, 2024-05-20 12:33:51.852
3.0, -2309.404588866781, -187500.02235174447, -187500.02235174447, -187500.02235174447, -187500.02235174447, -187500.02235174447, -187500.02235174447, -187500.02235174447, 0.22, 0.06, 0.44, 192.0, 0.0, 0.0, 0.0, 0.0, 0.0, 0.0, 0.0, 0.0, 0.0, 1.7161976318566043E9, 0.0, 2024-05-20 12:33:51.856
4.0, -2299.078082928429, -187500.02235174447, -187500.02235174447, -187500.02235174447, -187500.02235174447, -187500.02235174447, -187500.02235174447, -187500.02235174447, 0.22, 0.06, 0.44, 192.0, 0.0, 0.0, 0.0, 0.0, 0.0, 0.0, 0.0, 0.0, 0.0, 1.716197631859616E9, 0.0, 2024-05-20 12:33:51.859
5.0, -2297.736978261111, -187500.02235174447, -187500.02235174447, -187500.02235174447, -187500.02235174447, -187500.02235174447, -187500.02235174447, -187500.02235174447, 0.22, 0.06, 0.44, 192.0, 0.0, 0.0, 0.0, 0.0, 0.0, 0.0, 0.0, 0.0, 0.0, 1.716197631862671E9, 0.0, 2024-05-20 12:33:51.862
6.0, -2304.3977981087924, -187500.02235174447, -187500.02235174447, -187500.02235174447, -187500.02235174447, -187500.02235174447, -187500.02235174447, -187500.02235174447, 0.332, 0.09, 0.662, 192.0, 10.0, 96.0, 2.0, 208.0, 20.0, 176.0, 0.0, 0.0, 0.0, 1.7161976318656745E9, 0.0, 2024-05-20 12:33:51.865
7.0, -2314.344324391404, -187500.02235174447, -187500.02235174447, -187500.02235174447, -187500.02235174447, -187500.02235174447, -187500.02235174447, -187500.02235174447, 0.332, 0.09, 0.662, 192.0, 0.0, 0.0, 0.0, 0.0, 0.0, 0.0, 0.0, 0.0, 0.0, 1.7161976318697293E9, 0.0, 2024-05-20 12:33:51.869
8.0, -2308.175242921739, -187500.02235174447, -187500.02235174447, -187500.02235174447, -187500.02235174447, -187500.02235174447, -187500.02235174447, -187500.02235174447, 0.332, 0.09, 0.662, 192.0, 0.0, 0.0, 0.0, 0.0, 0.0, 0.0, 0.0, 0.0, 0.0, 1.7161976318726568E9, 0.0, 2024-05-20 12:33:51.872
9.0, -2300.329780617926, -187500.02235174447, -187500.02235174447, -187500.02235174447, -187500.02235174447, -187500.02235174447, -187500.02235174447, -187500.02235174447, 0.332, 0.09, 0.662, 192.0, 0.0, 0.0, 0.0, 0.0, 0.0, 0.0, 0.0, 0.0, 0.0, 1.7161976318766763E9, 0.0, 2024-05-20 12:33:51.876
10.0, -2304.464853342158, -187500.02235174447, -187500.02235174447, -187500.02235174447, -187500.02235174447, -187500.02235174447, -187500.02235174447, -187500.02235174447, 0.332, 0.09, 0.662, 192.0, 0.0, 0.0, 0.0, 0.0, 0.0, 0.0, 0.0, 0.0, 0.0, 1.7161976318816988E9, 0.0, 2024-05-20 12:33:51.881
11.0, -2308.823443510943, -187500.02235174447, -187500.02235174447, -187500.02235174447, -187500.02235174447, -187500.02235174447, -187500.02235174447, -187500.02235174447, 0.332, 0.09, 0.662, 192.0, 0.0, 0.0, 0.0, 0.0, 0.0, 0.0, 0.0, 0.0, 0.0, 1.716197631884734E9, 0.0, 2024-05-20 12:33:51.884
12.0, -2304.0401701975075, -187500.02235174447, -187500.02235174447, -187500.02235174447, -187500.02235174447, -187500.02235174447, -187500.02235174447, -187500.02235174447, 0.332, 0.09, 0.662, 192.0, 0.0, 0.0, 0.0, 0.0, 0.0, 0.0, 0.0, 0.0, 0.0, 1.7161976318887107E9, 0.0, 2024-05-20 12:33:51.888
13.0, -2304.26368764206, -187500.02235174447, -187500.02235174447, -187500.02235174447, -187500.02235174447, -187500.02235174447, -187500.02235174447, -187500.02235174447, 0.332, 0.09, 0.662, 192.0, 0.0, 0.0, 0.0, 0.0, 0.0, 0.0, 0.0, 0.0, 0.0, 1.7161976318927505E9, 0.0, 2024-05-20 12:33:51.892
14.0, -2300.374484106837, -187500.02235174447, -187500.02235174447, -187500.02235174447, -187500.02235174447, -187500.02235174447, -187500.02235174447, -187500.02235174447, 0.332, 0.09, 0.662, 192.0, 0.0, 0.0, 0.0, 0.0, 0.0, 0.0, 0.0, 0.0, 0.0, 1.7161976318978212E9, 0.0, 2024-05-20 12:33:51.897
15.0, -2295.859431726865, -187500.02235174447, -187500.02235174447, -187500.02235174447, -187500.02235174447, -187500.02235174447, -187500.02235174447, -187500.02235174447, 0.332, 0.09, 0.662, 192.0, 0.0, 0.0, 0.0, 0.0, 0.0, 0.0, 0.0, 0.0, 0.0, 1.7161976319017427E9, 0.0, 2024-05-20 12:33:51.901
16.0, -2301.916754474253, -187500.02235174447, -187500.02235174447, -187500.02235174447, -187500.02235174447, -187500.02235174447, -187500.02235174447, -187500.02235174447, 0.388, 0.106, 0.782, 192.0, 12.0, 32.0, 3.0, 80.0, 24.0, 112.0, 0.0, 0.0, 0.0, 1.716197631904792E9, 0.0, 2024-05-20 12:33:51.904
17.0, -2306.7447312765994, -187500.02235174447, -187500.02235174447, -187500.02235174447, -187500.02235174447, -187500.02235174447, -187500.02235174447, -187500.02235174447, 0.388, 0.106, 0.782, 192.0, 0.0, 0.0, 0.0, 0.0, 0.0, 0.0, 0.0, 0.0, 0.0, 1.7161976319087903E9, 0.0, 2024-05-20 12:33:51.908
18.0, -2308.8457952553986, -187500.02235174447, -187500.02235174447, -187500.02235174447, -187500.02235174447, -187500.02235174447, -187500.02235174447, -187500.02235174447, 0.388, 0.106, 0.782, 192.0, 0.0, 0.0, 0.0, 0.0, 0.0, 0.0, 0.0, 0.0, 0.0, 1.7161976319118037E9, 0.0, 2024-05-20 12:33:51.911
19.0, -2297.6922747722, -187500.02235174447, -187500.02235174447, -187500.02235174447, -187500.02235174447, -187500.02235174447, -187500.02235174447, -187500.02235174447, 0.388, 0.106, 0.782, 192.0, 0.0, 0.0, 0.0, 0.0, 0.0, 0.0, 0.0, 0.0, 0.0, 1.7161976319158475E9, 0.0, 2024-05-20 12:33:51.915
20.0, -2292.864297969854, -187500.02235174447, -187500.02235174447, -187500.02235174447, -187500.02235174447, -187500.02235174447, -187500.02235174447, -187500.02235174447, 0.388, 0.106, 0.782, 192.0, 0.0, 0.0, 0.0, 0.0, 0.0, 0.0, 0.0, 0.0, 0.0, 1.7161976319208283E9, 0.0, 2024-05-20 12:33:51.920
21.0, -2296.105300915873, -187500.02235174447, -187500.02235174447, -187500.02235174447, -187500.02235174447, -187500.02235174447, -187500.02235174447, -187500.02235174447, 0.388, 0.106, 0.782, 192.0, 0.0, 0.0, 0.0, 0.0, 0.0, 0.0, 0.0, 0.0, 0.0, 1.7161976319248533E9, 0.0, 2024-05-20 12:33:51.924
22.0, -2301.916754474253, -187500.02235174447, -187500.02235174447, -187500.02235174447, -187500.02235174447, -187500.02235174447, -187500.02235174447, -187500.02235174447, 0.388, 0.106, 0.782, 192.0, 0.0, 0.0, 0.0, 0.0, 0.0, 0.0, 0.0, 0.0, 0.0, 1.7161976319288895E9, 0.0, 2024-05-20 12:33:51.928
23.0, -2304.889536486809, -187500.02235174447, -187500.02235174447, -187500.02235174447, -187500.02235174447, -187500.02235174447, -187500.02235174447, -187500.02235174447, 0.388, 0.106, 0.782, 192.0, 0.0, 0.0, 0.0, 0.0, 0.0, 0.0, 0.0, 0.0, 0.0, 1.716197631932904E9, 0.0, 2024-05-20 12:33:51.932
24.0, -2299.1898416507056, -187500.02235174447, -187500.02235174447, -187500.02235174447, -187500.02235174447, -187500.02235174447, -187500.02235174447, -187500.02235174447, 0.388, 0.106, 0.782, 192.0, 0.0, 0.0, 0.0, 0.0, 0.0, 0.0, 0.0, 0.0, 0.0, 1.7161976319360936E9, 0.0, 2024-05-20 12:33:51.936
25.0, -2292.4843183141134, -187500.02235174447, -187500.02235174447, -187500.02235174447, -187500.02235174447, -187500.02235174447, -187500.02235174447, -187500.02235174447, 0.388, 0.106, 0.782, 192.0, 0.0, 0.0, 0.0, 0.0, 0.0, 0.0, 0.0, 0.0, 0.0, 1.716197631939915E9, 0.0, 2024-05-20 12:33:51.939
26.0, -2301.1120916738623, -187500.02235174447, -187500.02235174447, -187500.02235174447, -187500.02235174447, -187500.02235174447, -187500.02235174447, -187500.02235174447, 0.41400000000000003, 0.116, 0.84, 192.0, 12.0, 240.0, 3.0, 160.0, 26.0, 64.0, 0.0, 0.0, 0.0, 1.7161976319439392E9, 0.0, 2024-05-20 12:33:51.943
27.0, -2301.0003329515857, -187500.02235174447, -187500.02235174447, -187500.02235174447, -187500.02235174447, -187500.02235174447, -187500.02235174447, -187500.02235174447, 0.41400000000000003, 0.116, 0.84, 192.0, 0.0, 0.0, 0.0, 0.0, 0.0, 0.0, 0.0, 0.0, 0.0, 1.7161976319489534E9, 0.0, 2024-05-20 12:33:51.948
28.0, -2304.3530946198816, -187500.02235174447, -187500.02235174447, -187500.02235174447, -187500.02235174447, -187500.02235174447, -187500.02235174447, -187500.02235174447, 0.41400000000000003, 0.116, 0.84, 192.0, 0.0, 0.0, 0.0, 0.0, 0.0, 0.0, 0.0, 0.0, 0.0, 1.7161976319529474E9, 0.0, 2024-05-20 12:33:51.952
29.0, -2307.0576556989736, -187500.02235174447, -187500.02235174447, -187500.02235174447, -187500.02235174447, -187500.02235174447, -187500.02235174447, -187500.02235174447, 0.41400000000000003, 0.116, 0.84, 192.0, 0.0, 0.0, 0.0, 0.0, 0.0, 0.0, 0.0, 0.0, 0.0, 1.716197631957052E9, 0.0, 2024-05-20 12:33:51.957
30.0, -2294.205402637172, -187500.02235174447, -187500.02235174447, -187500.02235174447, -187500.02235174447, -187500.02235174447, -187500.02235174447, -187500.02235174447, 0.41400000000000003, 0.116, 0.84, 192.0, 0.0, 0.0, 0.0, 0.0, 0.0, 0.0, 0.0, 0.0, 0.0, 1.7161976319610367E9, 0.0, 2024-05-20 12:33:51.961
31.0, -2292.1043386583733, -187500.02235174447, -187500.02235174447, -187500.02235174447, -187500.02235174447, -187500.02235174447, -187500.02235174447, -187500.02235174447, 0.41400000000000003, 0.116, 0.84, 192.0, 0.0, 0.0, 0.0, 0.0, 0.0, 0.0, 0.0, 0.0, 0.0, 1.716197631964059E9, 0.0, 2024-05-20 12:33:51.964
32.0, -2303.0790451859293, -187500.02235174447, -187500.02235174447, -187500.02235174447, -187500.02235174447, -187500.02235174447, -187500.02235174447, -187500.02235174447, 0.41400000000000003, 0.116, 0.84, 192.0, 0.0, 0.0, 0.0, 0.0, 0.0, 0.0, 0.0, 0.0, 0.0, 1.7161976319680767E9, 0.0, 2024-05-20 12:33:51.968
33.0, -2308.376408621837, -187500.02235174447, -187500.02235174447, -187500.02235174447, -187500.02235174447, -187500.02235174447, -187500.02235174447, -187500.02235174447, 0.41400000000000003, 0.116, 0.84, 192.0, 0.0, 0.0, 0.0, 0.0, 0.0, 0.0, 0.0, 0.0, 0.0, 1.716197631972092E9, 0.0, 2024-05-20 12:33:51.972
34.0, -2304.7777777645324, -187500.02235174447, -187500.02235174447, -187500.02235174447, -187500.02235174447, -187500.02235174447, -187500.02235174447, -187500.02235174447, 0.41400000000000003, 0.116, 0.84, 192.0, 0.0, 0.0, 0.0, 0.0, 0.0, 0.0, 0.0, 0.0, 0.0, 1.7161976319770887E9, 0.0, 2024-05-20 12:33:51.977
35.0, -2294.0265886815296, -187500.02235174447, -187500.02235174447, -187500.02235174447, -187500.02235174447, -187500.02235174447, -187500.02235174447, -187500.02235174447, 0.41400000000000003, 0.116, 0.84, 192.0, 0.0, 0.0, 0.0, 0.0, 0.0, 0.0, 0.0, 0.0, 0.0, 1.7161976319820778E9, 0.0, 2024-05-20 12:33:51.982
36.0, -2296.2841148715156, -187500.02235174447, -187500.02235174447, -187500.02235174447, -187500.02235174447, -187500.02235174447, -187500.02235174447, -187500.02235174447, 0.424, 0.11800000000000001, 0.866, 192.0, 13.0, 64.0, 3.0, 176.0, 27.0, 16.0, 0.0, 0.0, 0.0, 1.716197631988092E9, 0.0, 2024-05-20 12:33:51.988
37.0, -2297.759330005566, -187500.02235174447, -187500.02235174447, -187500.02235174447, -187500.02235174447, -187500.02235174447, -187500.02235174447, -187500.02235174447, 0.424, 0.11800000000000001, 0.866, 192.0, 0.0, 0.0, 0.0, 0.0, 0.0, 0.0, 0.0, 0.0, 0.0, 1.716197631991158E9, 0.0, 2024-05-20 12:33:51.991
38.0, -2298.2510683835826, -187500.02235174447, -187500.02235174447, -187500.02235174447, -187500.02235174447, -187500.02235174447, -187500.02235174447, -187500.02235174447, 0.424, 0.11800000000000001, 0.866, 192.0, 0.0, 0.0, 0.0, 0.0, 0.0, 0.0, 0.0, 0.0, 0.0, 1.7161976319941373E9, 0.0, 2024-05-20 12:33:51.994
39.0, -2294.3842165928145, -187500.02235174447, -187500.02235174447, -187500.02235174447, -187500.02235174447, -187500.02235174447, -187500.02235174447, -187500.02235174447, 0.424, 0.11800000000000001, 0.866, 192.0, 0.0, 0.0, 0.0, 0.0, 0.0, 0.0, 0.0, 0.0, 0.0, 1.7161976319971533E9, 0.0, 2024-05-20 12:33:51.997
40.0, -2288.7962804789877, -187500.02235174447, -187500.02235174447, -187500.02235174447, -187500.02235174447, -187500.02235174447, -187500.02235174447, -187500.02235174447, 0.424, 0.11800000000000001, 0.866, 192.0, 0.0, 0.0, 0.0, 0.0, 0.0, 0.0, 0.0, 0.0, 0.0, 1.7161976320002136E9, 0.0, 2024-05-20 12:33:52.000
41.0, -2292.149042147284, -187500.02235174447, -187500.02235174447, -187500.02235174447, -187500.02235174447, -187500.02235174447, -187500.02235174447, -187500.02235174447, 0.424, 0.11800000000000001, 0.866, 192.0, 0.0, 0.0, 0.0, 0.0, 0.0, 0.0, 0.0, 0.0, 0.0, 1.7161976320042129E9, 0.0, 2024-05-20 12:33:52.004
42.0, -2295.2782863710268, -187500.02235174447, -187500.02235174447, -187500.02235174447, -187500.02235174447, -187500.02235174447, -187500.02235174447, -187500.02235174447, 0.424, 0.11800000000000001, 0.866, 192.0, 0.0, 0.0, 0.0, 0.0, 0.0, 0.0, 0.0, 0.0, 0.0, 1.7161976320082033E9, 0.0, 2024-05-20 12:33:52.008
43.0, -2300.352132362382, -187500.02235174447, -187500.02235174447, -187500.02235174447, -187500.02235174447, -187500.02235174447, -187500.02235174447, -187500.02235174447, 0.424, 0.11800000000000001, 0.866, 192.0, 0.0, 0.0, 0.0, 0.0, 0.0, 0.0, 0.0, 0.0, 0.0, 1.7161976320133824E9, 0.0, 2024-05-20 12:33:52.013
44.0, -2289.7127020016555, -187500.02235174447, -187500.02235174447, -187500.02235174447, -187500.02235174447, -187500.02235174447, -187500.02235174447, -187500.02235174447, 0.424, 0.11800000000000001, 0.866, 192.0, 0.0, 0.0, 0.0, 0.0, 0.0, 0.0, 0.0, 0.0, 0.0, 1.7161976320162828E9, 0.0, 2024-05-20 12:33:52.016
45.0, -2289.869164212843, -187500.02235174447, -187500.02235174447, -187500.02235174447, -187500.02235174447, -187500.02235174447, -187500.02235174447, -187500.02235174447, 0.424, 0.11800000000000001, 0.866, 192.0, 0.0, 0.0, 0.0, 0.0, 0.0, 0.0, 0.0, 0.0, 0.0, 1.7161976320202568E9, 0.0, 2024-05-20 12:33:52.020
46.0, -2301.1120916738623, -187500.02235174447, -187500.02235174447, -187500.02235174447, -187500.02235174447, -187500.02235174447, -187500.02235174447, -187500.02235174447, 0.44, 0.122, 0.882, 192.0, 13.0, 192.0, 3.0, 208.0, 27.0, 144.0, 0.0, 0.0, 0.0, 1.7161976320242388E9, 0.0, 2024-05-20 12:33:52.024
47.0, -2300.1062631733735, -187500.02235174447, -187500.02235174447, -187500.02235174447, -187500.02235174447, -187500.02235174447, -187500.02235174447, -187500.02235174447, 0.44, 0.122, 0.882, 192.0, 0.0, 0.0, 0.0, 0.0, 0.0, 0.0, 0.0, 0.0, 0.0, 1.7161976320282671E9, 0.0, 2024-05-20 12:33:52.028
48.0, -2295.8370799824097, -187500.02235174447, -187500.02235174447, -187500.02235174447, -187500.02235174447, -187500.02235174447, -187500.02235174447, -187500.02235174447, 0.44, 0.122, 0.882, 192.0, 0.0, 0.0, 0.0, 0.0, 0.0, 0.0, 0.0, 0.0, 0.0, 1.7161976320323076E9, 0.0, 2024-05-20 12:33:52.032
49.0, -2285.2647048550493, -187500.02235174447, -187500.02235174447, -187500.02235174447, -187500.02235174447, -187500.02235174447, -187500.02235174447, -187500.02235174447, 0.44, 0.122, 0.882, 192.0, 0.0, 0.0, 0.0, 0.0, 0.0, 0.0, 0.0, 0.0, 0.0, 1.716197632036302E9, 0.0, 2024-05-20 12:33:52.036
50.0, -2283.8118414654546, -187500.02235174447, -187500.02235174447, -187500.02235174447, -187500.02235174447, -187500.02235174447, -187500.02235174447, -187500.02235174447, 0.44, 0.122, 0.882, 192.0, 0.0, 0.0, 0.0, 0.0, 0.0, 0.0, 0.0, 0.0, 0.0, 1.716197632041324E9, 0.0, 2024-05-20 12:33:52.041
51.0, -2290.249143868583, -187500.02235174447, -187500.02235174447, -187500.02235174447, -187500.02235174447, -187500.02235174447, -187500.02235174447, -187500.02235174447, 0.44, 0.122, 0.882, 192.0, 0.0, 0.0, 0.0, 0.0, 0.0, 0.0, 0.0, 0.0, 0.0, 1.7161976320443282E9, 0.0, 2024-05-20 12:33:52.044
52.0, -2298.340475361404, -187500.02235174447, -187500.02235174447, -187500.02235174447, -187500.02235174447, -187500.02235174447, -187500.02235174447, -187500.02235174447, 0.44, 0.122, 0.882, 192.0, 0.0, 0.0, 0.0, 0.0, 0.0, 0.0, 0.0, 0.0, 0.0, 1.716197632049504E9, 0.0, 2024-05-20 12:33:52.049
53.0, -2298.5639928059572, -187500.02235174447, -187500.02235174447, -187500.02235174447, -187500.02235174447, -187500.02235174447, -187500.02235174447, -187500.02235174447, 0.44, 0.122, 0.882, 192.0, 0.0, 0.0, 0.0, 0.0, 0.0, 0.0, 0.0, 0.0, 0.0, 1.716197632052359E9, 0.0, 2024-05-20 12:33:52.052
54.0, -2282.9401234316974, -187500.02235174447, -187500.02235174447, -187500.02235174447, -187500.02235174447, -187500.02235174447, -187500.02235174447, -187500.02235174447, 0.44, 0.122, 0.882, 192.0, 0.0, 0.0, 0.0, 0.0, 0.0, 0.0, 0.0, 0.0, 0.0, 1.7161976320573795E9, 0.0, 2024-05-20 12:33:52.057
55.0, -2279.5873617634015, -187500.02235174447, -187500.02235174447, -187500.02235174447, -187500.02235174447, -187500.02235174447, -187500.02235174447, -187500.02235174447, 0.442, 0.122, 0.888, 192.0, 13.0, 208.0, 3.0, 208.0, 27.0, 192.0, 0.0, 0.0, 0.0, 1.71619763206137E9, 0.0, 2024-05-20 12:33:52.061
56.0, -2288.952742690175, -187500.02235174447, -187500.02235174447, -187500.02235174447, -187500.02235174447, -187500.02235174447, -187500.02235174447, -187500.02235174447, 0.442, 0.122, 0.888, 192.0, 0.0, 0.0, 0.0, 0.0, 0.0, 0.0, 0.0, 0.0, 0.0, 1.7161976320644E9, 0.0, 2024-05-20 12:33:52.064
57.0, -2292.886649714309, -187500.02235174447, -187500.02235174447, -187500.02235174447, -187500.02235174447, -187500.02235174447, -187500.02235174447, -187500.02235174447, 0.442, 0.122, 0.888, 192.0, 0.0, 0.0, 0.0, 0.0, 0.0, 0.0, 0.0, 0.0, 0.0, 1.716197632068433E9, 0.0, 2024-05-20 12:33:52.068
58.0, -2292.864297969854, -187500.02235174447, -187500.02235174447, -187500.02235174447, -187500.02235174447, -187500.02235174447, -187500.02235174447, -187500.02235174447, 0.442, 0.122, 0.888, 192.0, 0.0, 0.0, 0.0, 0.0, 0.0, 0.0, 0.0, 0.0, 0.0, 1.7161976320724013E9, 0.0, 2024-05-20 12:33:52.072
59.0, -2283.11893738734, -187500.02235174447, -187500.02235174447, -187500.02235174447, -187500.02235174447, -187500.02235174447, -187500.02235174447, -187500.02235174447, 0.442, 0.122, 0.888, 192.0, 0.0, 0.0, 0.0, 0.0, 0.0, 0.0, 0.0, 0.0, 0.0, 1.7161976320754035E9, 0.0, 2024-05-20 12:33:52.075
60.0, -2273.977073905119, -187500.02235174447, -187500.02235174447, -187500.02235174447, -187500.02235174447, -187500.02235174447, -187500.02235174447, -187500.02235174447, 0.442, 0.122, 0.888, 192.0, 0.0, 0.0, 0.0, 0.0, 0.0, 0.0, 0.0, 0.0, 0.0, 1.7161976320804691E9, 0.0, 2024-05-20 12:33:52.080
61.0, -2278.112146629351, -187500.02235174447, -187500.02235174447, -187500.02235174447, -187500.02235174447, -187500.02235174447, -187500.02235174447, -187500.02235174447, 0.442, 0.122, 0.888, 192.0, 0.0, 0.0, 0.0, 0.0, 0.0, 0.0, 0.0, 0.0, 0.0, 1.716197632084429E9, 0.0, 2024-05-20 12:33:52.084
62.0, -2283.700082743178, -187500.02235174447, -187500.02235174447, -187500.02235174447, -187500.02235174447, -187500.02235174447, -187500.02235174447, -187500.02235174447, 0.442, 0.122, 0.888, 192.0, 0.0, 0.0, 0.0, 0.0, 0.0, 0.0, 0.0, 0.0, 0.0, 1.7161976320914755E9, 0.0, 2024-05-20 12:33:52.091
63.0, -2281.531963531013, -187500.02235174447, -187500.02235174447, -187500.02235174447, -187500.02235174447, -187500.02235174447, -187500.02235174447, -187500.02235174447, 0.442, 0.122, 0.888, 192.0, 0.0, 0.0, 0.0, 0.0, 0.0, 0.0, 0.0, 0.0, 0.0, 1.716197632094496E9, 0.0, 2024-05-20 12:33:52.094
64.0, -2287.008140922563, -187500.02235174447, -187500.02235174447, -187500.02235174447, -187500.02235174447, -187500.02235174447, -187500.02235174447, -187500.02235174447, 0.442, 0.122, 0.888, 192.0, 0.0, 0.0, 0.0, 0.0, 0.0, 0.0, 0.0, 0.0, 0.0, 1.7161976320975037E9, 0.0, 2024-05-20 12:33:52.097
65.0, -2283.364806576348, -187500.02235174447, -187500.02235174447, -187500.02235174447, -187500.02235174447, -187500.02235174447, -187500.02235174447, -187500.02235174447, 0.446, 0.122, 0.888, 192.0, 13.0, 240.0, 3.0, 208.0, 27.0, 192.0, 0.0, 0.0, 0.0, 1.7161976321015098E9, 0.0, 2024-05-20 12:33:52.101
66.0, -2290.919696202242, -187500.02235174447, -187500.02235174447, -187500.02235174447, -187500.02235174447, -187500.02235174447, -187500.02235174447, -187500.02235174447, 0.446, 0.122, 0.888, 192.0, 0.0, 0.0, 0.0, 0.0, 0.0, 0.0, 0.0, 0.0, 0.0, 1.7161976321045196E9, 0.0, 2024-05-20 12:33:52.104
67.0, -2296.9323154607196, -187500.02235174447, -187500.02235174447, -187500.02235174447, -187500.02235174447, -187500.02235174447, -187500.02235174447, -187500.02235174447, 0.446, 0.122, 0.888, 192.0, 0.0, 0.0, 0.0, 0.0, 0.0, 0.0, 0.0, 0.0, 0.0, 1.7161976321086752E9, 0.0, 2024-05-20 12:33:52.108
68.0, -2285.018835666041, -187500.02235174447, -187500.02235174447, -187500.02235174447, -187500.02235174447, -187500.02235174447, -187500.02235174447, -187500.02235174447, 0.446, 0.122, 0.888, 192.0, 0.0, 0.0, 0.0, 0.0, 0.0, 0.0, 0.0, 0.0, 0.0, 1.7161976321125767E9, 0.0, 2024-05-20 12:33:52.112
69.0, -2273.9994256495747, -187500.02235174447, -187500.02235174447, -187500.02235174447, -187500.02235174447, -187500.02235174447, -187500.02235174447, -187500.02235174447, 0.446, 0.122, 0.888, 192.0, 0.0, 0.0, 0.0, 0.0, 0.0, 0.0, 0.0, 0.0, 0.0, 1.716197632116572E9, 0.0, 2024-05-20 12:33:52.116
70.0, -2272.3901000487926, -187500.02235174447, -187500.02235174447, -187500.02235174447, -187500.02235174447, -187500.02235174447, -187500.02235174447, -187500.02235174447, 0.446, 0.122, 0.888, 192.0, 0.0, 0.0, 0.0, 0.0, 0.0, 0.0, 0.0, 0.0, 0.0, 1.7161976321205857E9, 0.0, 2024-05-20 12:33:52.120
71.0, -2279.788527463499, -187500.02235174447, -187500.02235174447, -187500.02235174447, -187500.02235174447, -187500.02235174447, -187500.02235174447, -187500.02235174447, 0.446, 0.122, 0.888, 192.0, 0.0, 0.0, 0.0, 0.0, 0.0, 0.0, 0.0, 0.0, 0.0, 1.716197632124606E9, 0.0, 2024-05-20 12:33:52.124
72.0, -2284.951780432675, -187500.02235174447, -187500.02235174447, -187500.02235174447, -187500.02235174447, -187500.02235174447, -187500.02235174447, -187500.02235174447, 0.446, 0.122, 0.888, 192.0, 0.0, 0.0, 0.0, 0.0, 0.0, 0.0, 0.0, 0.0, 0.0, 1.71619763212762E9, 0.0, 2024-05-20 12:33:52.127
73.0, -2283.3201030874375, -187500.02235174447, -187500.02235174447, -187500.02235174447, -187500.02235174447, -187500.02235174447, -187500.02235174447, -187500.02235174447, 0.446, 0.122, 0.888, 192.0, 0.0, 0.0, 0.0, 0.0, 0.0, 0.0, 0.0, 0.0, 0.0, 1.7161976321316566E9, 0.0, 2024-05-20 12:33:52.131
74.0, -2278.3580158183595, -187500.02235174447, -187500.02235174447, -187500.02235174447, -187500.02235174447, -187500.02235174447, -187500.02235174447, -187500.02235174447, 0.446, 0.122, 0.888, 192.0, 0.0, 0.0, 0.0, 0.0, 0.0, 0.0, 0.0, 0.0, 0.0, 1.7161976321360364E9, 0.0, 2024-05-20 12:33:52.136
75.0, -2276.8380971953984, -187500.02235174447, -187500.02235174447, -187500.02235174447, -187500.02235174447, -187500.02235174447, -187500.02235174447, -187500.02235174447, 0.444, 0.122, 0.888, 192.0, 13.0, 224.0, 3.0, 208.0, 27.0, 192.0, 0.0, 0.0, 0.0, 1.7161976321416464E9, 0.0, 2024-05-20 12:33:52.141
76.0, -2265.1034313563623, -187500.02235174447, -187500.02235174447, -187500.02235174447, -187500.02235174447, -187500.02235174447, -187500.02235174447, -187500.02235174447, 0.444, 0.122, 0.888, 192.0, 0.0, 0.0, 0.0, 0.0, 0.0, 0.0, 0.0, 0.0, 0.0, 1.71619763214468E9, 0.0, 2024-05-20 12:33:52.144
77.0, -2280.861411197354, -187500.02235174447, -187500.02235174447, -187500.02235174447, -187500.02235174447, -187500.02235174447, -187500.02235174447, -187500.02235174447, 0.444, 0.122, 0.888, 192.0, 0.0, 0.0, 0.0, 0.0, 0.0, 0.0, 0.0, 0.0, 0.0, 1.7161976321486902E9, 0.0, 2024-05-20 12:33:52.148
78.0, -2290.0703299129405, -187500.02235174447, -187500.02235174447, -187500.02235174447, -187500.02235174447, -187500.02235174447, -187500.02235174447, -187500.02235174447, 0.444, 0.122, 0.888, 192.0, 0.0, 0.0, 0.0, 0.0, 0.0, 0.0, 0.0, 0.0, 0.0, 1.7161976321517231E9, 0.0, 2024-05-20 12:33:52.151
79.0, -2279.83323095241, -187500.02235174447, -187500.02235174447, -187500.02235174447, -187500.02235174447, -187500.02235174447, -187500.02235174447, -187500.02235174447, 0.444, 0.122, 0.888, 192.0, 0.0, 0.0, 0.0, 0.0, 0.0, 0.0, 0.0, 0.0, 0.0, 1.7161976321557107E9, 0.0, 2024-05-20 12:33:52.155
80.0, -2272.9712454046307, -187500.02235174447, -187500.02235174447, -187500.02235174447, -187500.02235174447, -187500.02235174447, -187500.02235174447, -187500.02235174447, 0.444, 0.122, 0.888, 192.0, 0.0, 0.0, 0.0, 0.0, 0.0, 0.0, 0.0, 0.0, 0.0, 1.7161976321598144E9, 0.0, 2024-05-20 12:33:52.159
81.0, -2270.2666843255383, -187500.02235174447, -187500.02235174447, -187500.02235174447, -187500.02235174447, -187500.02235174447, -187500.02235174447, -187500.02235174447, 0.444, 0.122, 0.888, 192.0, 0.0, 0.0, 0.0, 0.0, 0.0, 0.0, 0.0, 0.0, 0.0, 1.716197632163744E9, 0.0, 2024-05-20 12:33:52.163
82.0, -2250.6642044382343, -187500.02235174447, -187500.02235174447, -187500.02235174447, -187500.02235174447, -187500.02235174447, -187500.02235174447, -187500.02235174447, 0.444, 0.122, 0.888, 192.0, 0.0, 0.0, 0.0, 0.0, 0.0, 0.0, 0.0, 0.0, 0.0, 1.7161976321677685E9, 0.0, 2024-05-20 12:33:52.167
83.0, -2267.6738819687225, -187500.02235174447, -187500.02235174447, -187500.02235174447, -187500.02235174447, -187500.02235174447, -187500.02235174447, -187500.02235174447, 0.444, 0.122, 0.888, 192.0, 0.0, 0.0, 0.0, 0.0, 0.0, 0.0, 0.0, 0.0, 0.0, 1.716197632172758E9, 0.0, 2024-05-20 12:33:52.172
84.0, -2288.1257281453286, -187500.02235174447, -187500.02235174447, -187500.02235174447, -187500.02235174447, -187500.02235174447, -187500.02235174447, -187500.02235174447, 0.444, 0.122, 0.888, 192.0, 0.0, 0.0, 0.0, 0.0, 0.0, 0.0, 0.0, 0.0, 0.0, 1.7161976321767848E9, 0.0, 2024-05-20 12:33:52.176
85.0, -2264.20936157815, -187500.02235174447, -187500.02235174447, -187500.02235174447, -187500.02235174447, -187500.02235174447, -187500.02235174447, -187500.02235174447, 0.446, 0.122, 0.9, 192.0, 13.0, 240.0, 3.0, 208.0, 28.0, 32.0, 0.0, 0.0, 0.0, 1.7161976321797955E9, 0.0, 2024-05-20 12:33:52.179
86.0, -2265.170486589728, -187500.02235174447, -187500.02235174447, -187500.02235174447, -187500.02235174447, -187500.02235174447, -187500.02235174447, -187500.02235174447, 0.446, 0.122, 0.9, 192.0, 0.0, 0.0, 0.0, 0.0, 0.0, 0.0, 0.0, 0.0, 0.0, 1.7161976321838083E9, 0.0, 2024-05-20 12:33:52.183
87.0, -2257.660300452745, -187500.02235174447, -187500.02235174447, -187500.02235174447, -187500.02235174447, -187500.02235174447, -187500.02235174447, -187500.02235174447, 0.446, 0.122, 0.9, 192.0, 0.0, 0.0, 0.0, 0.0, 0.0, 0.0, 0.0, 0.0, 0.0, 1.716197632187852E9, 0.0, 2024-05-20 12:33:52.187
88.0, -2237.096695553863, -187500.02235174447, -187500.02235174447, -187500.02235174447, -187500.02235174447, -187500.02235174447, -187500.02235174447, -187500.02235174447, 0.446, 0.122, 0.9, 192.0, 0.0, 0.0, 0.0, 0.0, 0.0, 0.0, 0.0, 0.0, 0.0, 1.7161976321918547E9, 0.0, 2024-05-20 12:33:52.191
89.0, -2203.7702445709997, -187500.02235174447, -187500.02235174447, -187500.02235174447, -187500.02235174447, -187500.02235174447, -187500.02235174447, -187500.02235174447, 0.446, 0.122, 0.9, 192.0, 0.0, 0.0, 0.0, 0.0, 0.0, 0.0, 0.0, 0.0, 0.0, 1.71619763219586E9, 0.0, 2024-05-20 12:33:52.195
90.0, -2236.470846709114, -187500.02235174447, -187500.02235174447, -187500.02235174447, -187500.02235174447, -187500.02235174447, -187500.02235174447, -187500.02235174447, 0.446, 0.122, 0.9, 192.0, 0.0, 0.0, 0.0, 0.0, 0.0, 0.0, 0.0, 0.0, 0.0, 1.716197632200904E9, 0.0, 2024-05-20 12:33:52.200
91.0, -2264.0976028558734, -187500.02235174447, -187500.02235174447, -187500.02235174447, -187500.02235174447, -187500.02235174447, -187500.02235174447, -187500.02235174447, 0.446, 0.122, 0.9, 192.0, 0.0, 0.0, 0.0, 0.0, 0.0, 0.0, 0.0, 0.0, 0.0, 1.7161976322049208E9, 0.0, 2024-05-20 12:33:52.204
92.0, -2273.3959285492815, -187500.02235174447, -187500.02235174447, -187500.02235174447, -187500.02235174447, -187500.02235174447, -187500.02235174447, -187500.02235174447, 0.446, 0.122, 0.9, 192.0, 0.0, 0.0, 0.0, 0.0, 0.0, 0.0, 0.0, 0.0, 0.0, 1.7161976322079637E9, 0.0, 2024-05-20 12:33:52.207
93.0, -2305.7389027761105, -187500.02235174447, -187500.02235174447, -187500.02235174447, -187500.02235174447, -187500.02235174447, -187500.02235174447, -187500.02235174447, 0.446, 0.122, 0.9, 192.0, 0.0, 0.0, 0.0, 0.0, 0.0, 0.0, 0.0, 0.0, 0.0, 1.7161976322129412E9, 0.0, 2024-05-20 12:33:52.212
94.0, -2274.4911640275914, -187500.02235174447, -187500.02235174447, -187500.02235174447, -187500.02235174447, -187500.02235174447, -187500.02235174447, -187500.02235174447, 0.448, 0.12, 0.892, 192.0, 14.0, 0.0, 3.0, 192.0, 27.0, 224.0, 0.0, 0.0, 0.0, 1.7161976322159834E9, 0.0, 2024-05-20 12:33:52.215
95.0, -2256.2074370631503, -187500.02235174447, -187500.02235174447, -187500.02235174447, -187500.02235174447, -187500.02235174447, -187500.02235174447, -187500.02235174447, 0.448, 0.12, 0.892, 192.0, 0.0, 0.0, 0.0, 0.0, 0.0, 0.0, 0.0, 0.0, 0.0, 1.7161976322199967E9, 0.0, 2024-05-20 12:33:52.219
96.0, -2250.7312596716, -187500.02235174447, -187500.02235174447, -187500.02235174447, -187500.02235174447, -187500.02235174447, -187500.02235174447, -187500.02235174447, 0.448, 0.12, 0.892, 192.0, 0.0, 0.0, 0.0, 0.0, 0.0, 0.0, 0.0, 0.0, 0.0, 1.7161976322239556E9, 0.0, 2024-05-20 12:33:52.223
97.0, -2249.121934070818, -187500.02235174447, -187500.02235174447, -187500.02235174447, -187500.02235174447, -187500.02235174447, -187500.02235174447, -187500.02235174447, 0.448, 0.12, 0.892, 192.0, 0.0, 0.0, 0.0, 0.0, 0.0, 0.0, 0.0, 0.0, 0.0, 1.7161976322279837E9, 0.0, 2024-05-20 12:33:52.227
98.0, -2222.188082002173, -187500.02235174447, -187500.02235174447, -187500.02235174447, -187500.02235174447, -187500.02235174447, -187500.02235174447, -187500.02235174447, 0.448, 0.12, 0.892, 192.0, 0.0, 0.0, 0.0, 0.0, 0.0, 0.0, 0.0, 0.0, 0.0, 1.7161976322340264E9, 0.0, 2024-05-20 12:33:52.234
99.0, -2188.5040031080252, -187500.02235174447, -187500.02235174447, -187500.02235174447, -187500.02235174447, -187500.02235174447, -187500.02235174447, -187500.02235174447, 0.448, 0.12, 0.892, 192.0, 0.0, 0.0, 0.0, 0.0, 0.0, 0.0, 0.0, 0.0, 0.0, 1.7161976322370448E9, 0.0, 2024-05-20 12:33:52.237
100.0, -2200.2386689470613, -187500.02235174447, -187500.02235174447, -187500.02235174447, -187500.02235174447, -187500.02235174447, -187500.02235174447, -187500.02235174447, 0.448, 0.12, 0.892, 192.0, 0.0, 0.0, 0.0, 0.0, 0.0, 0.0, 0.0, 0.0, 0.0, 1.7161976322410123E9, 0.0, 2024-05-20 12:33:52.241
101.0, -2204.798424815944, -187500.02235174447, -187500.02235174447, -187500.02235174447, -187500.02235174447, -187500.02235174447, -187500.02235174447, -187500.02235174447, 0.448, 0.12, 0.892, 192.0, 0.0, 0.0, 0.0, 0.0, 0.0, 0.0, 0.0, 0.0, 0.0, 1.7161976322440324E9, 0.0, 2024-05-20 12:33:52.244
102.0, -2135.284499559939, -187500.02235174447, -187500.02235174447, -187500.02235174447, -187500.02235174447, -187500.02235174447, -187500.02235174447, -187500.02235174447, 0.448, 0.12, 0.892, 192.0, 0.0, 0.0, 0.0, 0.0, 0.0, 0.0, 0.0, 0.0, 0.0, 1.7161976322480748E9, 0.0, 2024-05-20 12:33:52.248
103.0, -2158.1503341377183, -187500.02235174447, -187500.02235174447, -187500.02235174447, -187500.02235174447, -187500.02235174447, -187500.02235174447, -187500.02235174447, 0.448, 0.12, 0.892, 192.0, 0.0, 0.0, 0.0, 0.0, 0.0, 0.0, 0.0, 0.0, 0.0, 1.7161976322520697E9, 0.0, 2024-05-20 12:33:52.252
104.0, -2302.3637893633595, -187500.02235174447, -187500.02235174447, -187500.02235174447, -187500.02235174447, -187500.02235174447, -187500.02235174447, -187500.02235174447, 0.444, 0.122, 0.892, 192.0, 13.0, 224.0, 3.0, 208.0, 27.0, 224.0, 0.0, 0.0, 0.0, 1.7161976322560782E9, 0.0, 2024-05-20 12:33:52.256
105.0, -2240.8517886223544, -187500.02235174447, -187500.02235174447, -187500.02235174447, -187500.02235174447, -187500.02235174447, -187500.02235174447, -187500.02235174447, 0.444, 0.122, 0.892, 192.0, 0.0, 0.0, 0.0, 0.0, 0.0, 0.0, 0.0, 0.0, 0.0, 1.7161976322590935E9, 0.0, 2024-05-20 12:33:52.259
106.0, -2199.791634057955, -187500.02235174447, -187500.02235174447, -187500.02235174447, -187500.02235174447, -187500.02235174447, -187500.02235174447, -187500.02235174447, 0.444, 0.122, 0.892, 192.0, 0.0, 0.0, 0.0, 0.0, 0.0, 0.0, 0.0, 0.0, 0.0, 1.716197632263164E9, 0.0, 2024-05-20 12:33:52.263
107.0, -2201.5574218699244, -187500.02235174447, -187500.02235174447, -187500.02235174447, -187500.02235174447, -187500.02235174447, -187500.02235174447, -187500.02235174447, 0.444, 0.122, 0.892, 192.0, 0.0, 0.0, 0.0, 0.0, 0.0, 0.0, 0.0, 0.0, 0.0, 1.7161976322672524E9, 0.0, 2024-05-20 12:33:52.267
108.0, -2227.016058804519, -187500.02235174447, -187500.02235174447, -187500.02235174447, -187500.02235174447, -187500.02235174447, -187500.02235174447, -187500.02235174447, 0.444, 0.122, 0.892, 192.0, 0.0, 0.0, 0.0, 0.0, 0.0, 0.0, 0.0, 0.0, 0.0, 1.7161976322722178E9, 0.0, 2024-05-20 12:33:52.272
109.0, -2211.5933551303574, -187500.02235174447, -187500.02235174447, -187500.02235174447, -187500.02235174447, -187500.02235174447, -187500.02235174447, -187500.02235174447, 0.444, 0.122, 0.892, 192.0, 0.0, 0.0, 0.0, 0.0, 0.0, 0.0, 0.0, 0.0, 0.0, 1.7161976322772336E9, 0.0, 2024-05-20 12:33:52.277
110.0, -2213.113273753318, -187500.02235174447, -187500.02235174447, -187500.02235174447, -187500.02235174447, -187500.02235174447, -187500.02235174447, -187500.02235174447, 0.444, 0.122, 0.892, 192.0, 0.0, 0.0, 0.0, 0.0, 0.0, 0.0, 0.0, 0.0, 0.0, 1.71619763228023E9, 0.0, 2024-05-20 12:33:52.280
111.0, -2214.409674931726, -187500.02235174447, -187500.02235174447, -187500.02235174447, -187500.02235174447, -187500.02235174447, -187500.02235174447, -187500.02235174447, 0.444, 0.122, 0.892, 192.0, 0.0, 0.0, 0.0, 0.0, 0.0, 0.0, 0.0, 0.0, 0.0, 1.7161976322842157E9, 0.0, 2024-05-20 12:33:52.284
112.0, -2208.6205731178015, -187500.02235174447, -187500.02235174447, -187500.02235174447, -187500.02235174447, -187500.02235174447, -187500.02235174447, -187500.02235174447, 0.444, 0.122, 0.892, 192.0, 0.0, 0.0, 0.0, 0.0, 0.0, 0.0, 0.0, 0.0, 0.0, 1.7161976322882433E9, 0.0, 2024-05-20 12:33:52.288
113.0, -2188.1463751967403, -187500.02235174447, -187500.02235174447, -187500.02235174447, -187500.02235174447, -187500.02235174447, -187500.02235174447, -187500.02235174447, 0.444, 0.122, 0.892, 192.0, 0.0, 0.0, 0.0, 0.0, 0.0, 0.0, 0.0, 0.0, 0.0, 1.7161976322932425E9, 0.0, 2024-05-20 12:33:52.293
114.0, -2122.6334121982354, -187500.02235174447, -187500.02235174447, -187500.02235174447, -187500.02235174447, -187500.02235174447, -187500.02235174447, -187500.02235174447, 0.44, 0.11800000000000001, 0.89, 192.0, 13.0, 192.0, 3.0, 176.0, 27.0, 208.0, 0.0, 0.0, 0.0, 1.7161976322962503E9, 0.0, 2024-05-20 12:33:52.296
115.0, -2109.3788277362382, -187500.02235174447, -187500.02235174447, -187500.02235174447, -187500.02235174447, -187500.02235174447, -187500.02235174447, -187500.02235174447, 0.44, 0.11800000000000001, 0.89, 192.0, 0.0, 0.0, 0.0, 0.0, 0.0, 0.0, 0.0, 0.0, 0.0, 1.7161976322993023E9, 0.0, 2024-05-20 12:33:52.299
116.0, -2194.762491555511, -187500.02235174447, -187500.02235174447, -187500.02235174447, -187500.02235174447, -187500.02235174447, -187500.02235174447, -187500.02235174447, 0.44, 0.11800000000000001, 0.89, 192.0, 0.0, 0.0, 0.0, 0.0, 0.0, 0.0, 0.0, 0.0, 0.0, 1.716197632305302E9, 0.0, 2024-05-20 12:33:52.305
117.0, -2115.346743505805, -187500.02235174447, -187500.02235174447, -187500.02235174447, -187500.02235174447, -187500.02235174447, -187500.02235174447, -187500.02235174447, 0.44, 0.11800000000000001, 0.89, 192.0, 0.0, 0.0, 0.0, 0.0, 0.0, 0.0, 0.0, 0.0, 0.0, 1.716197632308283E9, 0.0, 2024-05-20 12:33:52.308
118.0, -2063.9824347475096, -187500.02235174447, -187500.02235174447, -187500.02235174447, -187500.02235174447, -187500.02235174447, -187500.02235174447, -187500.02235174447, 0.44, 0.11800000000000001, 0.89, 192.0, 0.0, 0.0, 0.0, 0.0, 0.0, 0.0, 0.0, 0.0, 0.0, 1.7161976323143117E9, 0.0, 2024-05-20 12:33:52.314
119.0, -2153.478819546559, -187500.02235174447, -187500.02235174447, -187500.02235174447, -187500.02235174447, -187500.02235174447, -187500.02235174447, -187500.02235174447, 0.44, 0.11800000000000001, 0.89, 192.0, 0.0, 0.0, 0.0, 0.0, 0.0, 0.0, 0.0, 0.0, 0.0, 1.7161976323173356E9, 0.0, 2024-05-20 12:33:52.317
120.0, -2227.1948727601616, -187500.02235174447, -187500.02235174447, -187500.02235174447, -187500.02235174447, -187500.02235174447, -187500.02235174447, -187500.02235174447, 0.44, 0.11800000000000001, 0.89, 192.0, 0.0, 0.0, 0.0, 0.0, 0.0, 0.0, 0.0, 0.0, 0.0, 1.7161976323203464E9, 0.0, 2024-05-20 12:33:52.320
121.0, -2249.881893382298, -187500.02235174447, -187500.02235174447, -187500.02235174447, -187500.02235174447, -187500.02235174447, -187500.02235174447, -187500.02235174447, 0.44, 0.11800000000000001, 0.89, 192.0, 0.0, 0.0, 0.0, 0.0, 0.0, 0.0, 0.0, 0.0, 0.0, 1.716197632323354E9, 0.0, 2024-05-20 12:33:52.323
122.0, -2237.119047298318, -187500.02235174447, -187500.02235174447, -187500.02235174447, -187500.02235174447, -187500.02235174447, -187500.02235174447, -187500.02235174447, 0.44, 0.11800000000000001, 0.89, 192.0, 0.0, 0.0, 0.0, 0.0, 0.0, 0.0, 0.0, 0.0, 0.0, 1.7161976323273609E9, 0.0, 2024-05-20 12:33:52.327
123.0, -2220.3328872123825, -187500.02235174447, -187500.02235174447, -187500.02235174447, -187500.02235174447, -187500.02235174447, -187500.02235174447, -187500.02235174447, 0.44, 0.11800000000000001, 0.89, 192.0, 0.0, 0.0, 0.0, 0.0, 0.0, 0.0, 0.0, 0.0, 0.0, 1.7161976323323724E9, 0.0, 2024-05-20 12:33:52.332
124.0, -2188.9733897415867, -187500.02235174447, -187500.02235174447, -187500.02235174447, -187500.02235174447, -187500.02235174447, -187500.02235174447, -187500.02235174447, 0.44, 0.124, 0.898, 192.0, 13.0, 192.0, 3.0, 224.0, 28.0, 16.0, 0.0, 0.0, 0.0, 1.7161976323364074E9, 0.0, 2024-05-20 12:33:52.336
125.0, -2138.0114123834865, -187500.02235174447, -187500.02235174447, -187500.02235174447, -187500.02235174447, -187500.02235174447, -187500.02235174447, -187500.02235174447, 0.44, 0.124, 0.898, 192.0, 0.0, 0.0, 0.0, 0.0, 0.0, 0.0, 0.0, 0.0, 0.0, 1.7161976323404024E9, 0.0, 2024-05-20 12:33:52.340
126.0, -2048.5597310733474, -187500.02235174447, -187500.02235174447, -187500.02235174447, -187500.02235174447, -187500.02235174447, -187500.02235174447, -187500.02235174447, 0.44, 0.124, 0.898, 192.0, 0.0, 0.0, 0.0, 0.0, 0.0, 0.0, 0.0, 0.0, 0.0, 1.71619763234341E9, 0.0, 2024-05-20 12:33:52.343
127.0, -2138.99488913952, -187500.02235174447, -187500.02235174447, -187500.02235174447, -187500.02235174447, -187500.02235174447, -187500.02235174447, -187500.02235174447, 0.44, 0.124, 0.898, 192.0, 0.0, 0.0, 0.0, 0.0, 0.0, 0.0, 0.0, 0.0, 0.0, 1.7161976323476348E9, 0.0, 2024-05-20 12:33:52.347
128.0, -2261.214227821139, -187500.02235174447, -187500.02235174447, -187500.02235174447, -187500.02235174447, -187500.02235174447, -187500.02235174447, -187500.02235174447, 0.44, 0.124, 0.898, 192.0, 0.0, 0.0, 0.0, 0.0, 0.0, 0.0, 0.0, 0.0, 0.0, 1.7161976323514214E9, 0.0, 2024-05-20 12:33:52.351
129.0, -2246.8197043919213, -187500.02235174447, -187500.02235174447, -187500.02235174447, -187500.02235174447, -187500.02235174447, -187500.02235174447, -187500.02235174447, 0.44, 0.124, 0.898, 192.0, 0.0, 0.0, 0.0, 0.0, 0.0, 0.0, 0.0, 0.0, 0.0, 1.7161976323554626E9, 0.0, 2024-05-20 12:33:52.355
130.0, -2162.3301103508607, -187500.02235174447, -187500.02235174447, -187500.02235174447, -187500.02235174447, -187500.02235174447, -187500.02235174447, -187500.02235174447, 0.44, 0.124, 0.898, 192.0, 0.0, 0.0, 0.0, 0.0, 0.0, 0.0, 0.0, 0.0, 0.0, 1.7161976323595057E9, 0.0, 2024-05-20 12:33:52.359
131.0, -2167.739232509045, -187500.02235174447, -187500.02235174447, -187500.02235174447, -187500.02235174447, -187500.02235174447, -187500.02235174447, -187500.02235174447, 0.44, 0.124, 0.898, 192.0, 0.0, 0.0, 0.0, 0.0, 0.0, 0.0, 0.0, 0.0, 0.0, 1.7161976323645065E9, 0.0, 2024-05-20 12:33:52.364
132.0, -2193.0414072324525, -187500.02235174447, -187500.02235174447, -187500.02235174447, -187500.02235174447, -187500.02235174447, -187500.02235174447, -187500.02235174447, 0.44, 0.124, 0.898, 192.0, 0.0, 0.0, 0.0, 0.0, 0.0, 0.0, 0.0, 0.0, 0.0, 1.716197632368529E9, 0.0, 2024-05-20 12:33:52.368
133.0, -2210.833395818877, -187500.02235174447, -187500.02235174447, -187500.02235174447, -187500.02235174447, -187500.02235174447, -187500.02235174447, -187500.02235174447, 0.44, 0.128, 0.892, 192.0, 13.0, 192.0, 4.0, 0.0, 27.0, 224.0, 0.0, 0.0, 0.0, 1.716197632371555E9, 0.0, 2024-05-20 12:33:52.371
134.0, -2186.5146978515027, -187500.02235174447, -187500.02235174447, -187500.02235174447, -187500.02235174447, -187500.02235174447, -187500.02235174447, -187500.02235174447, 0.44, 0.128, 0.892, 192.0, 0.0, 0.0, 0.0, 0.0, 0.0, 0.0, 0.0, 0.0, 0.0, 1.7161976323755412E9, 0.0, 2024-05-20 12:33:52.375
135.0, -2097.733568875023, -187500.02235174447, -187500.02235174447, -187500.02235174447, -187500.02235174447, -187500.02235174447, -187500.02235174447, -187500.02235174447, 0.44, 0.128, 0.892, 192.0, 0.0, 0.0, 0.0, 0.0, 0.0, 0.0, 0.0, 0.0, 0.0, 1.71619763238159E9, 0.0, 2024-05-20 12:33:52.381
136.0, -2072.051414495875, -187500.02235174447, -187500.02235174447, -187500.02235174447, -187500.02235174447, -187500.02235174447, -187500.02235174447, -187500.02235174447, 0.44, 0.128, 0.892, 192.0, 0.0, 0.0, 0.0, 0.0, 0.0, 0.0, 0.0, 0.0, 0.0, 1.7161976323855727E9, 0.0, 2024-05-20 12:33:52.385
137.0, -2238.2366345210835, -187500.02235174447, -187500.02235174447, -187500.02235174447, -187500.02235174447, -187500.02235174447, -187500.02235174447, -187500.02235174447, 0.44, 0.128, 0.892, 192.0, 0.0, 0.0, 0.0, 0.0, 0.0, 0.0, 0.0, 0.0, 0.0, 1.7161976323896024E9, 0.0, 2024-05-20 12:33:52.389
138.0, -2299.301600372982, -187500.02235174447, -187500.02235174447, -187500.02235174447, -187500.02235174447, -187500.02235174447, -187500.02235174447, -187500.02235174447, 0.44, 0.128, 0.892, 192.0, 0.0, 0.0, 0.0, 0.0, 0.0, 0.0, 0.0, 0.0, 0.0, 1.7161976323937771E9, 0.0, 2024-05-20 12:33:52.393
139.0, -2173.57303781188, -187500.02235174447, -187500.02235174447, -187500.02235174447, -187500.02235174447, -187500.02235174447, -187500.02235174447, -187500.02235174447, 0.44, 0.128, 0.892, 192.0, 0.0, 0.0, 0.0, 0.0, 0.0, 0.0, 0.0, 0.0, 0.0, 1.7161976323976295E9, 0.0, 2024-05-20 12:33:52.397
140.0, -2121.672287186657, -187500.02235174447, -187500.02235174447, -187500.02235174447, -187500.02235174447, -187500.02235174447, -187500.02235174447, -187500.02235174447, 0.44, 0.128, 0.892, 192.0, 0.0, 0.0, 0.0, 0.0, 0.0, 0.0, 0.0, 0.0, 0.0, 1.7161976324006524E9, 0.0, 2024-05-20 12:33:52.400
141.0, -2137.6314327277464, -187500.02235174447, -187500.02235174447, -187500.02235174447, -187500.02235174447, -187500.02235174447, -187500.02235174447, -187500.02235174447, 0.44, 0.128, 0.892, 192.0, 0.0, 0.0, 0.0, 0.0, 0.0, 0.0, 0.0, 0.0, 0.0, 1.71619763240368E9, 0.0, 2024-05-20 12:33:52.403
142.0, -2151.0424794009305, -187500.02235174447, -187500.02235174447, -187500.02235174447, -187500.02235174447, -187500.02235174447, -187500.02235174447, -187500.02235174447, 0.44, 0.128, 0.892, 192.0, 0.0, 0.0, 0.0, 0.0, 0.0, 0.0, 0.0, 0.0, 0.0, 1.7161976324077208E9, 0.0, 2024-05-20 12:33:52.407
143.0, -2156.8762847037656, -187500.02235174447, -187500.02235174447, -187500.02235174447, -187500.02235174447, -187500.02235174447, -187500.02235174447, -187500.02235174447, 0.438, 0.122, 0.892, 192.0, 13.0, 176.0, 3.0, 208.0, 27.0, 224.0, 0.0, 0.0, 0.0, 1.7161976324117324E9, 0.0, 2024-05-20 12:33:52.411
144.0, -2079.31573144385, -187500.02235174447, -187500.02235174447, -187500.02235174447, -187500.02235174447, -187500.02235174447, -187500.02235174447, -187500.02235174447, 0.438, 0.122, 0.892, 192.0, 0.0, 0.0, 0.0, 0.0, 0.0, 0.0, 0.0, 0.0, 0.0, 1.71619763241571E9, 0.0, 2024-05-20 12:33:52.415
145.0, -2098.068845041853, -187500.02235174447, -187500.02235174447, -187500.02235174447, -187500.02235174447, -187500.02235174447, -187500.02235174447, -187500.02235174447, 0.438, 0.122, 0.892, 192.0, 0.0, 0.0, 0.0, 0.0, 0.0, 0.0, 0.0, 0.0, 0.0, 1.7161976324207067E9, 0.0, 2024-05-20 12:33:52.420
146.0, -2199.4563578911257, -187500.02235174447, -187500.02235174447, -187500.02235174447, -187500.02235174447, -187500.02235174447, -187500.02235174447, -187500.02235174447, 0.438, 0.122, 0.892, 192.0, 0.0, 0.0, 0.0, 0.0, 0.0, 0.0, 0.0, 0.0, 0.0, 1.7161976324238076E9, 0.0, 2024-05-20 12:33:52.423
147.0, -2149.7237264780674, -187500.02235174447, -187500.02235174447, -187500.02235174447, -187500.02235174447, -187500.02235174447, -187500.02235174447, -187500.02235174447, 0.438, 0.122, 0.892, 192.0, 0.0, 0.0, 0.0, 0.0, 0.0, 0.0, 0.0, 0.0, 0.0, 1.7161976324267564E9, 0.0, 2024-05-20 12:33:52.426
148.0, -2108.9764963360426, -187500.02235174447, -187500.02235174447, -187500.02235174447, -187500.02235174447, -187500.02235174447, -187500.02235174447, -187500.02235174447, 0.438, 0.122, 0.892, 192.0, 0.0, 0.0, 0.0, 0.0, 0.0, 0.0, 0.0, 0.0, 0.0, 1.7161976324307675E9, 0.0, 2024-05-20 12:33:52.430
149.0, -2025.515082539926, -187500.02235174447, -187500.02235174447, -187500.02235174447, -187500.02235174447, -187500.02235174447, -187500.02235174447, -187500.02235174447, 0.438, 0.122, 0.892, 192.0, 0.0, 0.0, 0.0, 0.0, 0.0, 0.0, 0.0, 0.0, 0.0, 1.71619763243576E9, 0.0, 2024-05-20 12:33:52.435
150.0, -2105.355513734283, -187500.02235174447, -187500.02235174447, -187500.02235174447, -187500.02235174447, -187500.02235174447, -187500.02235174447, -187500.02235174447, 0.438, 0.122, 0.892, 192.0, 0.0, 0.0, 0.0, 0.0, 0.0, 0.0, 0.0, 0.0, 0.0, 1.7161976324398692E9, 0.0, 2024-05-20 12:33:52.439
151.0, -2235.509721697536, -187500.02235174447, -187500.02235174447, -187500.02235174447, -187500.02235174447, -187500.02235174447, -187500.02235174447, -187500.02235174447, 0.438, 0.122, 0.892, 192.0, 0.0, 0.0, 0.0, 0.0, 0.0, 0.0, 0.0, 0.0, 0.0, 1.7161976324438531E9, 0.0, 2024-05-20 12:33:52.443
152.0, -2210.453416163137, -187500.02235174447, -187500.02235174447, -187500.02235174447, -187500.02235174447, -187500.02235174447, -187500.02235174447, -187500.02235174447, 0.438, 0.122, 0.892, 192.0, 0.0, 0.0, 0.0, 0.0, 0.0, 0.0, 0.0, 0.0, 0.0, 1.7161976324479883E9, 0.0, 2024-05-20 12:33:52.447
153.0, -2112.1057405597858, -187500.02235174447, -187500.02235174447, -187500.02235174447, -187500.02235174447, -187500.02235174447, -187500.02235174447, -187500.02235174447, 0.438, 0.124, 0.898, 192.0, 13.0, 176.0, 3.0, 224.0, 28.0, 16.0, 0.0, 0.0, 0.0, 1.7161976324528391E9, 0.0, 2024-05-20 12:33:52.452
154.0, -2106.3389904903165, -187500.02235174447, -187500.02235174447, -187500.02235174447, -187500.02235174447, -187500.02235174447, -187500.02235174447, -187500.02235174447, 0.438, 0.124, 0.898, 192.0, 0.0, 0.0, 0.0, 0.0, 0.0, 0.0, 0.0, 0.0, 0.0, 1.7161976324562335E9, 0.0, 2024-05-20 12:33:52.456
155.0, -2143.2640723304835, -187500.02235174447, -187500.02235174447, -187500.02235174447, -187500.02235174447, -187500.02235174447, -187500.02235174447, -187500.02235174447, 0.438, 0.124, 0.898, 192.0, 0.0, 0.0, 0.0, 0.0, 0.0, 0.0, 0.0, 0.0, 0.0, 1.7161976324598708E9, 0.0, 2024-05-20 12:33:52.459
156.0, -2118.386580751727, -187500.02235174447, -187500.02235174447, -187500.02235174447, -187500.02235174447, -187500.02235174447, -187500.02235174447, -187500.02235174447, 0.438, 0.124, 0.898, 192.0, 0.0, 0.0, 0.0, 0.0, 0.0, 0.0, 0.0, 0.0, 0.0, 1.7161976324638956E9, 0.0, 2024-05-20 12:33:52.463
157.0, -2076.4547081535707, -187500.02235174447, -187500.02235174447, -187500.02235174447, -187500.02235174447, -187500.02235174447, -187500.02235174447, -187500.02235174447, 0.438, 0.124, 0.898, 192.0, 0.0, 0.0, 0.0, 0.0, 0.0, 0.0, 0.0, 0.0, 0.0, 1.7161976324679055E9, 0.0, 2024-05-20 12:33:52.467
158.0, -2069.0786324833193, -187500.02235174447, -187500.02235174447, -187500.02235174447, -187500.02235174447, -187500.02235174447, -187500.02235174447, -187500.02235174447, 0.438, 0.124, 0.898, 192.0, 0.0, 0.0, 0.0, 0.0, 0.0, 0.0, 0.0, 0.0, 0.0, 1.716197632471932E9, 0.0, 2024-05-20 12:33:52.471
159.0, -2127.081409344841, -187500.02235174447, -187500.02235174447, -187500.02235174447, -187500.02235174447, -187500.02235174447, -187500.02235174447, -187500.02235174447, 0.438, 0.124, 0.898, 192.0, 0.0, 0.0, 0.0, 0.0, 0.0, 0.0, 0.0, 0.0, 0.0, 1.7161976324759583E9, 0.0, 2024-05-20 12:33:52.475
160.0, -2127.5954994673134, -187500.02235174447, -187500.02235174447, -187500.02235174447, -187500.02235174447, -187500.02235174447, -187500.02235174447, -187500.02235174447, 0.438, 0.124, 0.898, 192.0, 0.0, 0.0, 0.0, 0.0, 0.0, 0.0, 0.0, 0.0, 0.0, 1.7161976324789474E9, 0.0, 2024-05-20 12:33:52.478
161.0, -2099.544060175903, -187500.02235174447, -187500.02235174447, -187500.02235174447, -187500.02235174447, -187500.02235174447, -187500.02235174447, -187500.02235174447, 0.438, 0.124, 0.898, 192.0, 0.0, 0.0, 0.0, 0.0, 0.0, 0.0, 0.0, 0.0, 0.0, 1.7161976324829707E9, 0.0, 2024-05-20 12:33:52.482
162.0, -2180.122098937285, -187500.02235174447, -187500.02235174447, -187500.02235174447, -187500.02235174447, -187500.02235174447, -187500.02235174447, -187500.02235174447, 0.438, 0.124, 0.898, 192.0, 0.0, 0.0, 0.0, 0.0, 0.0, 0.0, 0.0, 0.0, 0.0, 1.7161976324869592E9, 0.0, 2024-05-20 12:33:52.486
163.0, -2134.23396757054, -187500.02235174447, -187500.02235174447, -187500.02235174447, -187500.02235174447, -187500.02235174447, -187500.02235174447, -187500.02235174447, 0.442, 0.11800000000000001, 0.892, 192.0, 13.0, 208.0, 3.0, 176.0, 27.0, 224.0, 0.0, 0.0, 0.0, 1.716197632492024E9, 0.0, 2024-05-20 12:33:52.492
164.0, -2086.22242048054, -187500.02235174447, -187500.02235174447, -187500.02235174447, -187500.02235174447, -187500.02235174447, -187500.02235174447, -187500.02235174447, 0.442, 0.11800000000000001, 0.892, 192.0, 0.0, 0.0, 0.0, 0.0, 0.0, 0.0, 0.0, 0.0, 0.0, 1.7161976324959924E9, 0.0, 2024-05-20 12:33:52.495
165.0, -2098.135900275219, -187500.02235174447, -187500.02235174447, -187500.02235174447, -187500.02235174447, -187500.02235174447, -187500.02235174447, -187500.02235174447, 0.442, 0.11800000000000001, 0.892, 192.0, 0.0, 0.0, 0.0, 0.0, 0.0, 0.0, 0.0, 0.0, 0.0, 1.716197632500026E9, 0.0, 2024-05-20 12:33:52.500
166.0, -2111.3681329927604, -187500.02235174447, -187500.02235174447, -187500.02235174447, -187500.02235174447, -187500.02235174447, -187500.02235174447, -187500.02235174447, 0.442, 0.11800000000000001, 0.892, 192.0, 0.0, 0.0, 0.0, 0.0, 0.0, 0.0, 0.0, 0.0, 0.0, 1.7161976325029895E9, 0.0, 2024-05-20 12:33:52.502
167.0, -2080.2992081998837, -187500.02235174447, -187500.02235174447, -187500.02235174447, -187500.02235174447, -187500.02235174447, -187500.02235174447, -187500.02235174447, 0.442, 0.11800000000000001, 0.892, 192.0, 0.0, 0.0, 0.0, 0.0, 0.0, 0.0, 0.0, 0.0, 0.0, 1.7161976325070455E9, 0.0, 2024-05-20 12:33:52.507
168.0, -1991.1380995676639, -187500.02235174447, -187500.02235174447, -187500.02235174447, -187500.02235174447, -187500.02235174447, -187500.02235174447, -187500.02235174447, 0.442, 0.11800000000000001, 0.892, 192.0, 0.0, 0.0, 0.0, 0.0, 0.0, 0.0, 0.0, 0.0, 0.0, 1.716197632511054E9, 0.0, 2024-05-20 12:33:52.511
169.0, -1985.7066256650241, -187500.02235174447, -187500.02235174447, -187500.02235174447, -187500.02235174447, -187500.02235174447, -187500.02235174447, -187500.02235174447, 0.442, 0.11800000000000001, 0.892, 192.0, 0.0, 0.0, 0.0, 0.0, 0.0, 0.0, 0.0, 0.0, 0.0, 1.71619763251507E9, 0.0, 2024-05-20 12:33:52.515
170.0, -2046.972757217021, -187500.02235174447, -187500.02235174447, -187500.02235174447, -187500.02235174447, -187500.02235174447, -187500.02235174447, -187500.02235174447, 0.442, 0.11800000000000001, 0.892, 192.0, 0.0, 0.0, 0.0, 0.0, 0.0, 0.0, 0.0, 0.0, 0.0, 1.7161976325191045E9, 0.0, 2024-05-20 12:33:52.519
171.0, -2079.159269232663, -187500.02235174447, -187500.02235174447, -187500.02235174447, -187500.02235174447, -187500.02235174447, -187500.02235174447, -187500.02235174447, 0.442, 0.11800000000000001, 0.892, 192.0, 0.0, 0.0, 0.0, 0.0, 0.0, 0.0, 0.0, 0.0, 0.0, 1.7161976325241132E9, 0.0, 2024-05-20 12:33:52.524
172.0, -2224.892643081265, -187500.02235174447, -187500.02235174447, -187500.02235174447, -187500.02235174447, -187500.02235174447, -187500.02235174447, -187500.02235174447, 0.444, 0.122, 0.89, 192.0, 13.0, 224.0, 3.0, 208.0, 27.0, 208.0, 0.0, 0.0, 0.0, 1.7161976325281196E9, 0.0, 2024-05-20 12:33:52.528
173.0, -2223.0374482914744, -187500.02235174447, -187500.02235174447, -187500.02235174447, -187500.02235174447, -187500.02235174447, -187500.02235174447, -187500.02235174447, 0.444, 0.122, 0.89, 192.0, 0.0, 0.0, 0.0, 0.0, 0.0, 0.0, 0.0, 0.0, 0.0, 1.716197632531226E9, 0.0, 2024-05-20 12:33:52.531
174.0, -2072.5431528738923, -187500.02235174447, -187500.02235174447, -187500.02235174447, -187500.02235174447, -187500.02235174447, -187500.02235174447, -187500.02235174447, 0.444, 0.122, 0.89, 192.0, 0.0, 0.0, 0.0, 0.0, 0.0, 0.0, 0.0, 0.0, 0.0, 1.7161976325352206E9, 0.0, 2024-05-20 12:33:52.535
175.0, -2077.0805569983195, -187500.02235174447, -187500.02235174447, -187500.02235174447, -187500.02235174447, -187500.02235174447, -187500.02235174447, -187500.02235174447, 0.444, 0.122, 0.89, 192.0, 0.0, 0.0, 0.0, 0.0, 0.0, 0.0, 0.0, 0.0, 0.0, 1.7161976325401917E9, 0.0, 2024-05-20 12:33:52.540
176.0, -1957.1410962511418, -187500.02235174447, -187500.02235174447, -187500.02235174447, -187500.02235174447, -187500.02235174447, -187500.02235174447, -187500.02235174447, 0.444, 0.122, 0.89, 192.0, 0.0, 0.0, 0.0, 0.0, 0.0, 0.0, 0.0, 0.0, 0.0, 1.7161976325442636E9, 0.0, 2024-05-20 12:33:52.544
177.0, -1942.5007036329155, -187500.02235174447, -187500.02235174447, -187500.02235174447, -187500.02235174447, -187500.02235174447, -187500.02235174447, -187500.02235174447, 0.444, 0.122, 0.89, 192.0, 0.0, 0.0, 0.0, 0.0, 0.0, 0.0, 0.0, 0.0, 0.0, 1.716197632547216E9, 0.0, 2024-05-20 12:33:52.547
178.0, -2199.0987299798408, -187500.02235174447, -187500.02235174447, -187500.02235174447, -187500.02235174447, -187500.02235174447, -187500.02235174447, -187500.02235174447, 0.444, 0.122, 0.89, 192.0, 0.0, 0.0, 0.0, 0.0, 0.0, 0.0, 0.0, 0.0, 0.0, 1.7161976325512965E9, 0.0, 2024-05-20 12:33:52.551
179.0, -2148.4720287885702, -187500.02235174447, -187500.02235174447, -187500.02235174447, -187500.02235174447, -187500.02235174447, -187500.02235174447, -187500.02235174447, 0.444, 0.122, 0.89, 192.0, 0.0, 0.0, 0.0, 0.0, 0.0, 0.0, 0.0, 0.0, 0.0, 1.7161976325572348E9, 0.0, 2024-05-20 12:33:52.557
180.0, -2054.482943354004, -187500.02235174447, -187500.02235174447, -187500.02235174447, -187500.02235174447, -187500.02235174447, -187500.02235174447, -187500.02235174447, 0.444, 0.122, 0.89, 192.0, 0.0, 0.0, 0.0, 0.0, 0.0, 0.0, 0.0, 0.0, 0.0, 1.7161976325612748E9, 0.0, 2024-05-20 12:33:52.561
181.0, -2063.4683446250374, -187500.02235174447, -187500.02235174447, -187500.02235174447, -187500.02235174447, -187500.02235174447, -187500.02235174447, -187500.02235174447, 0.444, 0.122, 0.89, 192.0, 0.0, 0.0, 0.0, 0.0, 0.0, 0.0, 0.0, 0.0, 0.0, 1.7161976325652452E9, 0.0, 2024-05-20 12:33:52.565
182.0, -2102.94152533311, -187500.02235174447, -187500.02235174447, -187500.02235174447, -187500.02235174447, -187500.02235174447, -187500.02235174447, -187500.02235174447, 0.444, 0.124, 0.896, 192.0, 13.0, 224.0, 3.0, 224.0, 28.0, 0.0, 0.0, 0.0, 0.0, 1.7161976325683236E9, 0.0, 2024-05-20 12:33:52.568
183.0, -2121.18054880864, -187500.02235174447, -187500.02235174447, -187500.02235174447, -187500.02235174447, -187500.02235174447, -187500.02235174447, -187500.02235174447, 0.444, 0.124, 0.896, 192.0, 0.0, 0.0, 0.0, 0.0, 0.0, 0.0, 0.0, 0.0, 0.0, 1.7161976325712872E9, 0.0, 2024-05-20 12:33:52.571
184.0, -2097.577106663836, -187500.02235174447, -187500.02235174447, -187500.02235174447, -187500.02235174447, -187500.02235174447, -187500.02235174447, -187500.02235174447, 0.444, 0.124, 0.896, 192.0, 0.0, 0.0, 0.0, 0.0, 0.0, 0.0, 0.0, 0.0, 0.0, 1.7161976325753043E9, 0.0, 2024-05-20 12:33:52.575
185.0, -2071.9843592625093, -187500.02235174447, -187500.02235174447, -187500.02235174447, -187500.02235174447, -187500.02235174447, -187500.02235174447, -187500.02235174447, 0.444, 0.124, 0.896, 192.0, 0.0, 0.0, 0.0, 0.0, 0.0, 0.0, 0.0, 0.0, 0.0, 1.7161976325793123E9, 0.0, 2024-05-20 12:33:52.579
186.0, -1967.8922853341444, -187500.02235174447, -187500.02235174447, -187500.02235174447, -187500.02235174447, -187500.02235174447, -187500.02235174447, -187500.02235174447, 0.444, 0.124, 0.896, 192.0, 0.0, 0.0, 0.0, 0.0, 0.0, 0.0, 0.0, 0.0, 0.0, 1.7161976325833457E9, 0.0, 2024-05-20 12:33:52.583
187.0, -1858.4804962254163, -187500.02235174447, -187500.02235174447, -187500.02235174447, -187500.02235174447, -187500.02235174447, -187500.02235174447, -187500.02235174447, 0.444, 0.124, 0.896, 192.0, 0.0, 0.0, 0.0, 0.0, 0.0, 0.0, 0.0, 0.0, 0.0, 1.7161976325873349E9, 0.0, 2024-05-20 12:33:52.587
188.0, -2024.5316057838925, -187500.02235174447, -187500.02235174447, -187500.02235174447, -187500.02235174447, -187500.02235174447, -187500.02235174447, -187500.02235174447, 0.444, 0.124, 0.896, 192.0, 0.0, 0.0, 0.0, 0.0, 0.0, 0.0, 0.0, 0.0, 0.0, 1.7161976325903547E9, 0.0, 2024-05-20 12:33:52.590
189.0, -2181.3067413934164, -187500.02235174447, -187500.02235174447, -187500.02235174447, -187500.02235174447, -187500.02235174447, -187500.02235174447, -187500.02235174447, 0.444, 0.124, 0.896, 192.0, 0.0, 0.0, 0.0, 0.0, 0.0, 0.0, 0.0, 0.0, 0.0, 1.7161976325953732E9, 0.0, 2024-05-20 12:33:52.595
190.0, -2239.086000810385, -187500.02235174447, -187500.02235174447, -187500.02235174447, -187500.02235174447, -187500.02235174447, -187500.02235174447, -187500.02235174447, 0.444, 0.124, 0.896, 192.0, 0.0, 0.0, 0.0, 0.0, 0.0, 0.0, 0.0, 0.0, 0.0, 1.7161976325994062E9, 0.0, 2024-05-20 12:33:52.599
191.0, -2032.2429576209734, -187500.02235174447, -187500.02235174447, -187500.02235174447, -187500.02235174447, -187500.02235174447, -187500.02235174447, -187500.02235174447, 0.444, 0.124, 0.896, 192.0, 0.0, 0.0, 0.0, 0.0, 0.0, 0.0, 0.0, 0.0, 0.0, 1.7161976326033893E9, 0.0, 2024-05-20 12:33:52.603
192.0, -1906.2685258708627, -187500.02235174447, -187500.02235174447, -187500.02235174447, -187500.02235174447, -187500.02235174447, -187500.02235174447, -187500.02235174447, 0.438, 0.126, 0.898, 192.0, 13.0, 176.0, 3.0, 240.0, 28.0, 16.0, 0.0, 0.0, 0.0, 1.7161976326074257E9, 0.0, 2024-05-20 12:33:52.607
193.0, -2073.057242996364, -187500.02235174447, -187500.02235174447, -187500.02235174447, -187500.02235174447, -187500.02235174447, -187500.02235174447, -187500.02235174447, 0.438, 0.126, 0.898, 192.0, 0.0, 0.0, 0.0, 0.0, 0.0, 0.0, 0.0, 0.0, 0.0, 1.7161976326104417E9, 0.0, 2024-05-20 12:33:52.610
194.0, -2076.9464465315878, -187500.02235174447, -187500.02235174447, -187500.02235174447, -187500.02235174447, -187500.02235174447, -187500.02235174447, -187500.02235174447, 0.438, 0.126, 0.898, 192.0, 0.0, 0.0, 0.0, 0.0, 0.0, 0.0, 0.0, 0.0, 0.0, 1.7161976326144657E9, 0.0, 2024-05-20 12:33:52.614
195.0, -1882.396862792595, -187500.02235174447, -187500.02235174447, -187500.02235174447, -187500.02235174447, -187500.02235174447, -187500.02235174447, -187500.02235174447, 0.438, 0.126, 0.898, 192.0, 0.0, 0.0, 0.0, 0.0, 0.0, 0.0, 0.0, 0.0, 0.0, 1.716197632618463E9, 0.0, 2024-05-20 12:33:52.618
196.0, -2022.5870040162808, -187500.02235174447, -187500.02235174447, -187500.02235174447, -187500.02235174447, -187500.02235174447, -187500.02235174447, -187500.02235174447, 0.438, 0.126, 0.898, 192.0, 0.0, 0.0, 0.0, 0.0, 0.0, 0.0, 0.0, 0.0, 0.0, 1.7161976326236627E9, 0.0, 2024-05-20 12:33:52.623
197.0, -2154.082316646852, -187500.02235174447, -187500.02235174447, -187500.02235174447, -187500.02235174447, -187500.02235174447, -187500.02235174447, -187500.02235174447, 0.438, 0.126, 0.898, 192.0, 0.0, 0.0, 0.0, 0.0, 0.0, 0.0, 0.0, 0.0, 0.0, 1.7161976326275826E9, 0.0, 2024-05-20 12:33:52.627
198.0, -2023.6598877501356, -187500.02235174447, -187500.02235174447, -187500.02235174447, -187500.02235174447, -187500.02235174447, -187500.02235174447, -187500.02235174447, 0.438, 0.126, 0.898, 192.0, 0.0, 0.0, 0.0, 0.0, 0.0, 0.0, 0.0, 0.0, 0.0, 1.716197632631549E9, 0.0, 2024-05-20 12:33:52.631
199.0, -2006.5384514973703, -187500.02235174447, -187500.02235174447, -187500.02235174447, -187500.02235174447, -187500.02235174447, -187500.02235174447, -187500.02235174447, 0.438, 0.126, 0.898, 192.0, 0.0, 0.0, 0.0, 0.0, 0.0, 0.0, 0.0, 0.0, 0.0, 1.7161976326355E9, 0.0, 2024-05-20 12:33:52.635
200.0, -2084.4342809241152, -187500.02235174447, -187500.02235174447, -187500.02235174447, -187500.02235174447, -187500.02235174447, -187500.02235174447, -187500.02235174447, 0.438, 0.126, 0.898, 192.0, 0.0, 0.0, 0.0, 0.0, 0.0, 0.0, 0.0, 0.0, 0.0, 1.7161976326395445E9, 0.0, 2024-05-20 12:33:52.639
201.0, -2106.22723176804, -187500.02235174447, -187500.02235174447, -187500.02235174447, -187500.02235174447, -187500.02235174447, -187500.02235174447, -187500.02235174447, 0.438, 0.126, 0.898, 192.0, 0.0, 0.0, 0.0, 0.0, 0.0, 0.0, 0.0, 0.0, 0.0, 1.71619763264254E9, 0.0, 2024-05-20 12:33:52.642
202.0, -2077.7511093319786, -187500.02235174447, -187500.02235174447, -187500.02235174447, -187500.02235174447, -187500.02235174447, -187500.02235174447, -187500.02235174447, 0.436, 0.128, 0.898, 192.0, 13.0, 160.0, 4.0, 0.0, 28.0, 16.0, 0.0, 0.0, 0.0, 1.7161976326465683E9, 0.0, 2024-05-20 12:33:52.646
203.0, -2064.0047864919648, -187500.02235174447, -187500.02235174447, -187500.02235174447, -187500.02235174447, -187500.02235174447, -187500.02235174447, -187500.02235174447, 0.436, 0.128, 0.898, 192.0, 0.0, 0.0, 0.0, 0.0, 0.0, 0.0, 0.0, 0.0, 0.0, 1.716197632650646E9, 0.0, 2024-05-20 12:33:52.650
204.0, -1973.6366836591583, -187500.02235174447, -187500.02235174447, -187500.02235174447, -187500.02235174447, -187500.02235174447, -187500.02235174447, -187500.02235174447, 0.436, 0.128, 0.898, 192.0, 0.0, 0.0, 0.0, 0.0, 0.0, 0.0, 0.0, 0.0, 0.0, 1.7161976326555989E9, 0.0, 2024-05-20 12:33:52.655
205.0, -1991.6968931790464, -187500.02235174447, -187500.02235174447, -187500.02235174447, -187500.02235174447, -187500.02235174447, -187500.02235174447, -187500.02235174447, 0.436, 0.128, 0.898, 192.0, 0.0, 0.0, 0.0, 0.0, 0.0, 0.0, 0.0, 0.0, 0.0, 1.716197632659616E9, 0.0, 2024-05-20 12:33:52.659
206.0, -2125.114455832774, -187500.02235174447, -187500.02235174447, -187500.02235174447, -187500.02235174447, -187500.02235174447, -187500.02235174447, -187500.02235174447, 0.436, 0.128, 0.898, 192.0, 0.0, 0.0, 0.0, 0.0, 0.0, 0.0, 0.0, 0.0, 0.0, 1.7161976326636856E9, 0.0, 2024-05-20 12:33:52.663
207.0, -2077.6617023541576, -187500.02235174447, -187500.02235174447, -187500.02235174447, -187500.02235174447, -187500.02235174447, -187500.02235174447, -187500.02235174447, 0.436, 0.128, 0.898, 192.0, 0.0, 0.0, 0.0, 0.0, 0.0, 0.0, 0.0, 0.0, 0.0, 1.7161976326666536E9, 0.0, 2024-05-20 12:33:52.666
208.0, -1914.5163195748712, -187500.02235174447, -187500.02235174447, -187500.02235174447, -187500.02235174447, -187500.02235174447, -187500.02235174447, -187500.02235174447, 0.436, 0.128, 0.898, 192.0, 0.0, 0.0, 0.0, 0.0, 0.0, 0.0, 0.0, 0.0, 0.0, 1.716197632670673E9, 0.0, 2024-05-20 12:33:52.670
209.0, -1888.0295023953322, -187500.02235174447, -187500.02235174447, -187500.02235174447, -187500.02235174447, -187500.02235174447, -187500.02235174447, -187500.02235174447, 0.436, 0.128, 0.898, 192.0, 0.0, 0.0, 0.0, 0.0, 0.0, 0.0, 0.0, 0.0, 0.0, 1.7161976326746857E9, 0.0, 2024-05-20 12:33:52.674
210.0, -2102.7627113774674, -187500.02235174447, -187500.02235174447, -187500.02235174447, -187500.02235174447, -187500.02235174447, -187500.02235174447, -187500.02235174447, 0.436, 0.128, 0.898, 192.0, 0.0, 0.0, 0.0, 0.0, 0.0, 0.0, 0.0, 0.0, 0.0, 1.7161976326786954E9, 0.0, 2024-05-20 12:33:52.678
211.0, -2162.4865725620475, -187500.02235174447, -187500.02235174447, -187500.02235174447, -187500.02235174447, -187500.02235174447, -187500.02235174447, -187500.02235174447, 0.438, 0.124, 0.898, 192.0, 13.0, 176.0, 3.0, 224.0, 28.0, 16.0, 0.0, 0.0, 0.0, 1.716197632683704E9, 0.0, 2024-05-20 12:33:52.683
212.0, -2063.669510325135, -187500.02235174447, -187500.02235174447, -187500.02235174447, -187500.02235174447, -187500.02235174447, -187500.02235174447, -187500.02235174447, 0.438, 0.124, 0.898, 192.0, 0.0, 0.0, 0.0, 0.0, 0.0, 0.0, 0.0, 0.0, 0.0, 1.7161976326877005E9, 0.0, 2024-05-20 12:33:52.687
213.0, -1941.5619303657927, -187500.02235174447, -187500.02235174447, -187500.02235174447, -187500.02235174447, -187500.02235174447, -187500.02235174447, -187500.02235174447, 0.438, 0.124, 0.898, 192.0, 0.0, 0.0, 0.0, 0.0, 0.0, 0.0, 0.0, 0.0, 0.0, 1.7161976326917596E9, 0.0, 2024-05-20 12:33:52.691
214.0, -2027.5043877964483, -187500.02235174447, -187500.02235174447, -187500.02235174447, -187500.02235174447, -187500.02235174447, -187500.02235174447, -187500.02235174447, 0.438, 0.124, 0.898, 192.0, 0.0, 0.0, 0.0, 0.0, 0.0, 0.0, 0.0, 0.0, 0.0, 1.7161976326947267E9, 0.0, 2024-05-20 12:33:52.694
215.0, -1966.9758638114768, -187500.02235174447, -187500.02235174447, -187500.02235174447, -187500.02235174447, -187500.02235174447, -187500.02235174447, -187500.02235174447, 0.438, 0.124, 0.898, 192.0, 0.0, 0.0, 0.0, 0.0, 0.0, 0.0, 0.0, 0.0, 0.0, 1.7161976326987596E9, 0.0, 2024-05-20 12:33:52.698
216.0, -2020.3071260818394, -187500.02235174447, -187500.02235174447, -187500.02235174447, -187500.02235174447, -187500.02235174447, -187500.02235174447, -187500.02235174447, 0.438, 0.124, 0.898, 192.0, 0.0, 0.0, 0.0, 0.0, 0.0, 0.0, 0.0, 0.0, 0.0, 1.716197632702764E9, 0.0, 2024-05-20 12:33:52.702
217.0, -2103.634429411224, -187500.02235174447, -187500.02235174447, -187500.02235174447, -187500.02235174447, -187500.02235174447, -187500.02235174447, -187500.02235174447, 0.438, 0.124, 0.898, 192.0, 0.0, 0.0, 0.0, 0.0, 0.0, 0.0, 0.0, 0.0, 0.0, 1.7161976327088048E9, 0.0, 2024-05-20 12:33:52.708
218.0, -2067.4693068825372, -187500.02235174447, -187500.02235174447, -187500.02235174447, -187500.02235174447, -187500.02235174447, -187500.02235174447, -187500.02235174447, 0.438, 0.124, 0.898, 192.0, 0.0, 0.0, 0.0, 0.0, 0.0, 0.0, 0.0, 0.0, 0.0, 1.716197632711795E9, 0.0, 2024-05-20 12:33:52.711
219.0, -2045.676356038613, -187500.02235174447, -187500.02235174447, -187500.02235174447, -187500.02235174447, -187500.02235174447, -187500.02235174447, -187500.02235174447, 0.438, 0.124, 0.898, 192.0, 0.0, 0.0, 0.0, 0.0, 0.0, 0.0, 0.0, 0.0, 0.0, 1.7161976327157965E9, 0.0, 2024-05-20 12:33:52.715
220.0, -2030.2313006199959, -187500.02235174447, -187500.02235174447, -187500.02235174447, -187500.02235174447, -187500.02235174447, -187500.02235174447, -187500.02235174447, 0.438, 0.124, 0.898, 192.0, 0.0, 0.0, 0.0, 0.0, 0.0, 0.0, 0.0, 0.0, 0.0, 1.716197632719829E9, 0.0, 2024-05-20 12:33:52.719
221.0, -2075.4935831419925, -187500.02235174447, -187500.02235174447, -187500.02235174447, -187500.02235174447, -187500.02235174447, -187500.02235174447, -187500.02235174447, 0.438, 0.11800000000000001, 0.896, 192.0, 13.0, 176.0, 3.0, 176.0, 28.0, 0.0, 0.0, 0.0, 0.0, 1.7161976327228403E9, 0.0, 2024-05-20 12:33:52.722
222.0, -2031.5947570317696, -187500.02235174447, -187500.02235174447, -187500.02235174447, -187500.02235174447, -187500.02235174447, -187500.02235174447, -187500.02235174447, 0.438, 0.11800000000000001, 0.896, 192.0, 0.0, 0.0, 0.0, 0.0, 0.0, 0.0, 0.0, 0.0, 0.0, 1.7161976327268612E9, 0.0, 2024-05-20 12:33:52.726
223.0, -1930.2072441824967, -187500.02235174447, -187500.02235174447, -187500.02235174447, -187500.02235174447, -187500.02235174447, -187500.02235174447, -187500.02235174447, 0.438, 0.11800000000000001, 0.896, 192.0, 0.0, 0.0, 0.0, 0.0, 0.0, 0.0, 0.0, 0.0, 0.0, 1.7161976327308776E9, 0.0, 2024-05-20 12:33:52.730
224.0, -1947.4627909019937, -187500.02235174447, -187500.02235174447, -187500.02235174447, -187500.02235174447, -187500.02235174447, -187500.02235174447, -187500.02235174447, 0.438, 0.11800000000000001, 0.896, 192.0, 0.0, 0.0, 0.0, 0.0, 0.0, 0.0, 0.0, 0.0, 0.0, 1.7161976327349212E9, 0.0, 2024-05-20 12:33:52.734
225.0, -2031.6394605206801, -187500.02235174447, -187500.02235174447, -187500.02235174447, -187500.02235174447, -187500.02235174447, -187500.02235174447, -187500.02235174447, 0.438, 0.11800000000000001, 0.896, 192.0, 0.0, 0.0, 0.0, 0.0, 0.0, 0.0, 0.0, 0.0, 0.0, 1.7161976327389328E9, 0.0, 2024-05-20 12:33:52.738
226.0, -2056.9416352440876, -187500.02235174447, -187500.02235174447, -187500.02235174447, -187500.02235174447, -187500.02235174447, -187500.02235174447, -187500.02235174447, 0.438, 0.11800000000000001, 0.896, 192.0, 0.0, 0.0, 0.0, 0.0, 0.0, 0.0, 0.0, 0.0, 0.0, 1.7161976327439399E9, 0.0, 2024-05-20 12:33:52.743
227.0, -2068.117507471741, -187500.02235174447, -187500.02235174447, -187500.02235174447, -187500.02235174447, -187500.02235174447, -187500.02235174447, -187500.02235174447, 0.438, 0.11800000000000001, 0.896, 192.0, 0.0, 0.0, 0.0, 0.0, 0.0, 0.0, 0.0, 0.0, 0.0, 1.7161976327469184E9, 0.0, 2024-05-20 12:33:52.746
228.0, -1917.556156820793, -187500.02235174447, -187500.02235174447, -187500.02235174447, -187500.02235174447, -187500.02235174447, -187500.02235174447, -187500.02235174447, 0.438, 0.11800000000000001, 0.896, 192.0, 0.0, 0.0, 0.0, 0.0, 0.0, 0.0, 0.0, 0.0, 0.0, 1.7161976327499416E9, 0.0, 2024-05-20 12:33:52.749
229.0, -1946.1887414680411, -187500.02235174447, -187500.02235174447, -187500.02235174447, -187500.02235174447, -187500.02235174447, -187500.02235174447, -187500.02235174447, 0.438, 0.11800000000000001, 0.896, 192.0, 0.0, 0.0, 0.0, 0.0, 0.0, 0.0, 0.0, 0.0, 0.0, 1.7161976327549531E9, 0.0, 2024-05-20 12:33:52.754
230.0, -2053.7006322980683, -187500.02235174447, -187500.02235174447, -187500.02235174447, -187500.02235174447, -187500.02235174447, -187500.02235174447, -187500.02235174447, 0.438, 0.11800000000000001, 0.896, 192.0, 0.0, 0.0, 0.0, 0.0, 0.0, 0.0, 0.0, 0.0, 0.0, 1.7161976327589989E9, 0.0, 2024-05-20 12:33:52.758
231.0, -2008.3265910537948, -187500.02235174447, -187500.02235174447, -187500.02235174447, -187500.02235174447, -187500.02235174447, -187500.02235174447, -187500.02235174447, 0.436, 0.12, 0.898, 192.0, 13.0, 160.0, 3.0, 192.0, 28.0, 16.0, 0.0, 0.0, 0.0, 1.716197632763045E9, 0.0, 2024-05-20 12:33:52.763
232.0, -2036.065105922831, -187500.02235174447, -187500.02235174447, -187500.02235174447, -187500.02235174447, -187500.02235174447, -187500.02235174447, -187500.02235174447, 0.436, 0.12, 0.898, 192.0, 0.0, 0.0, 0.0, 0.0, 0.0, 0.0, 0.0, 0.0, 0.0, 1.7161976327669983E9, 0.0, 2024-05-20 12:33:52.766
233.0, -1984.7007971645353, -187500.02235174447, -187500.02235174447, -187500.02235174447, -187500.02235174447, -187500.02235174447, -187500.02235174447, -187500.02235174447, 0.436, 0.12, 0.898, 192.0, 0.0, 0.0, 0.0, 0.0, 0.0, 0.0, 0.0, 0.0, 0.0, 1.7161976327710247E9, 0.0, 2024-05-20 12:33:52.771
234.0, -1960.4938579194377, -187500.02235174447, -187500.02235174447, -187500.02235174447, -187500.02235174447, -187500.02235174447, -187500.02235174447, -187500.02235174447, 0.436, 0.12, 0.898, 192.0, 0.0, 0.0, 0.0, 0.0, 0.0, 0.0, 0.0, 0.0, 0.0, 1.7161976327760468E9, 0.0, 2024-05-20 12:33:52.776
235.0, -2017.4461027915602, -187500.02235174447, -187500.02235174447, -187500.02235174447, -187500.02235174447, -187500.02235174447, -187500.02235174447, -187500.02235174447, 0.436, 0.12, 0.898, 192.0, 0.0, 0.0, 0.0, 0.0, 0.0, 0.0, 0.0, 0.0, 0.0, 1.716197632780054E9, 0.0, 2024-05-20 12:33:52.780
236.0, -2025.157454628641, -187500.02235174447, -187500.02235174447, -187500.02235174447, -187500.02235174447, -187500.02235174447, -187500.02235174447, -187500.02235174447, 0.436, 0.12, 0.898, 192.0, 0.0, 0.0, 0.0, 0.0, 0.0, 0.0, 0.0, 0.0, 0.0, 1.7161976327830727E9, 0.0, 2024-05-20 12:33:52.783
237.0, -1953.1177822491863, -187500.02235174447, -187500.02235174447, -187500.02235174447, -187500.02235174447, -187500.02235174447, -187500.02235174447, -187500.02235174447, 0.436, 0.12, 0.898, 192.0, 0.0, 0.0, 0.0, 0.0, 0.0, 0.0, 0.0, 0.0, 0.0, 1.7161976327871592E9, 0.0, 2024-05-20 12:33:52.787
238.0, -2021.8940999381662, -187500.02235174447, -187500.02235174447, -187500.02235174447, -187500.02235174447, -187500.02235174447, -187500.02235174447, -187500.02235174447, 0.436, 0.12, 0.898, 192.0, 0.0, 0.0, 0.0, 0.0, 0.0, 0.0, 0.0, 0.0, 0.0, 1.7161976327911296E9, 0.0, 2024-05-20 12:33:52.791
239.0, -2018.742503969968, -187500.02235174447, -187500.02235174447, -187500.02235174447, -187500.02235174447, -187500.02235174447, -187500.02235174447, -187500.02235174447, 0.436, 0.12, 0.898, 192.0, 0.0, 0.0, 0.0, 0.0, 0.0, 0.0, 0.0, 0.0, 0.0, 1.7161976327951243E9, 0.0, 2024-05-20 12:33:52.795
240.0, -2032.7570477434456, -187500.02235174447, -187500.02235174447, -187500.02235174447, -187500.02235174447, -187500.02235174447, -187500.02235174447, -187500.02235174447, 0.436, 0.12, 0.898, 192.0, 0.0, 0.0, 0.0, 0.0, 0.0, 0.0, 0.0, 0.0, 0.0, 1.7161976328012133E9, 0.0, 2024-05-20 12:33:52.801
241.0, -1970.4403842020495, -187500.02235174447, -187500.02235174447, -187500.02235174447, -187500.02235174447, -187500.02235174447, -187500.02235174447, -187500.02235174447, 0.434, 0.12, 0.9, 192.0, 13.0, 144.0, 3.0, 192.0, 28.0, 32.0, 0.0, 0.0, 0.0, 1.7161976328042312E9, 0.0, 2024-05-20 12:33:52.804
242.0, -1958.4374974295495, -187500.02235174447, -187500.02235174447, -187500.02235174447, -187500.02235174447, -187500.02235174447, -187500.02235174447, -187500.02235174447, 0.434, 0.12, 0.9, 192.0, 0.0, 0.0, 0.0, 0.0, 0.0, 0.0, 0.0, 0.0, 0.0, 1.7161976328081982E9, 0.0, 2024-05-20 12:33:52.808
243.0, -1971.937951080555, -187500.02235174447, -187500.02235174447, -187500.02235174447, -187500.02235174447, -187500.02235174447, -187500.02235174447, -187500.02235174447, 0.434, 0.12, 0.9, 192.0, 0.0, 0.0, 0.0, 0.0, 0.0, 0.0, 0.0, 0.0, 0.0, 1.716197632811196E9, 0.0, 2024-05-20 12:33:52.811
244.0, -1952.6260438711697, -187500.02235174447, -187500.02235174447, -187500.02235174447, -187500.02235174447, -187500.02235174447, -187500.02235174447, -187500.02235174447, 0.434, 0.12, 0.9, 192.0, 0.0, 0.0, 0.0, 0.0, 0.0, 0.0, 0.0, 0.0, 0.0, 1.716197632815202E9, 0.0, 2024-05-20 12:33:52.815
245.0, -1842.811923362246, -187500.02235174447, -187500.02235174447, -187500.02235174447, -187500.02235174447, -187500.02235174447, -187500.02235174447, -187500.02235174447, 0.434, 0.12, 0.9, 192.0, 0.0, 0.0, 0.0, 0.0, 0.0, 0.0, 0.0, 0.0, 0.0, 1.716197632819224E9, 0.0, 2024-05-20 12:33:52.819
246.0, -1889.2364965959189, -187500.02235174447, -187500.02235174447, -187500.02235174447, -187500.02235174447, -187500.02235174447, -187500.02235174447, -187500.02235174447, 0.434, 0.12, 0.9, 192.0, 0.0, 0.0, 0.0, 0.0, 0.0, 0.0, 0.0, 0.0, 0.0, 1.7161976328232057E9, 0.0, 2024-05-20 12:33:52.823
247.0, -1939.0585349867983, -187500.02235174447, -187500.02235174447, -187500.02235174447, -187500.02235174447, -187500.02235174447, -187500.02235174447, -187500.02235174447, 0.434, 0.12, 0.9, 192.0, 0.0, 0.0, 0.0, 0.0, 0.0, 0.0, 0.0, 0.0, 0.0, 1.7161976328272567E9, 0.0, 2024-05-20 12:33:52.827
248.0, -1901.1276246461423, -187500.02235174447, -187500.02235174447, -187500.02235174447, -187500.02235174447, -187500.02235174447, -187500.02235174447, -187500.02235174447, 0.434, 0.12, 0.9, 192.0, 0.0, 0.0, 0.0, 0.0, 0.0, 0.0, 0.0, 0.0, 0.0, 1.7161976328312664E9, 0.0, 2024-05-20 12:33:52.831
249.0, -1971.5579714248147, -187500.02235174447, -187500.02235174447, -187500.02235174447, -187500.02235174447, -187500.02235174447, -187500.02235174447, -187500.02235174447, 0.434, 0.12, 0.9, 192.0, 0.0, 0.0, 0.0, 0.0, 0.0, 0.0, 0.0, 0.0, 0.0, 1.7161976328342574E9, 0.0, 2024-05-20 12:33:52.834
250.0, -1967.0876225337533, -187500.02235174447, -187500.02235174447, -187500.02235174447, -187500.02235174447, -187500.02235174447, -187500.02235174447, -187500.02235174447, 0.434, 0.12, 0.9, 192.0, 0.0, 0.0, 0.0, 0.0, 0.0, 0.0, 0.0, 0.0, 0.0, 1.716197632838261E9, 0.0, 2024-05-20 12:33:52.838
251.0, -2030.7900942313786, -187500.02235174447, -187500.02235174447, -187500.02235174447, -187500.02235174447, -187500.02235174447, -187500.02235174447, -187500.02235174447, 0.438, 0.122, 0.896, 192.0, 13.0, 176.0, 3.0, 208.0, 28.0, 0.0, 0.0, 0.0, 0.0, 1.7161976328433635E9, 0.0, 2024-05-20 12:33:52.843
252.0, -1968.1828580120634, -187500.02235174447, -187500.02235174447, -187500.02235174447, -187500.02235174447, -187500.02235174447, -187500.02235174447, -187500.02235174447, 0.438, 0.122, 0.896, 192.0, 0.0, 0.0, 0.0, 0.0, 0.0, 0.0, 0.0, 0.0, 0.0, 1.7161976328473678E9, 0.0, 2024-05-20 12:33:52.847
253.0, -1879.0217493798436, -187500.02235174447, -187500.02235174447, -187500.02235174447, -187500.02235174447, -187500.02235174447, -187500.02235174447, -187500.02235174447, 0.438, 0.122, 0.896, 192.0, 0.0, 0.0, 0.0, 0.0, 0.0, 0.0, 0.0, 0.0, 0.0, 1.7161976328513443E9, 0.0, 2024-05-20 12:33:52.851
254.0, -2066.128202215219, -187500.02235174447, -187500.02235174447, -187500.02235174447, -187500.02235174447, -187500.02235174447, -187500.02235174447, -187500.02235174447, 0.438, 0.122, 0.896, 192.0, 0.0, 0.0, 0.0, 0.0, 0.0, 0.0, 0.0, 0.0, 0.0, 1.7161976328543313E9, 0.0, 2024-05-20 12:33:52.854
255.0, -2107.3448189908054, -187500.02235174447, -187500.02235174447, -187500.02235174447, -187500.02235174447, -187500.02235174447, -187500.02235174447, -187500.02235174447, 0.438, 0.122, 0.896, 192.0, 0.0, 0.0, 0.0, 0.0, 0.0, 0.0, 0.0, 0.0, 0.0, 1.716197632859414E9, 0.0, 2024-05-20 12:33:52.859
0.0, -1942.3442414217284, -187500.02235174447, -187500.02235174447, -187500.02235174447, -187500.02235174447, -187500.02235174447, -187500.02235174447, -187500.02235174447, 0.438, 0.122, 0.896, 192.0, 0.0, 0.0, 0.0, 0.0, 0.0, 0.0, 0.0, 0.0, 0.0, 1.716197632863383E9, 0.0, 2024-05-20 12:33:52.863
1.0, -1920.5289388333488, -187500.02235174447, -187500.02235174447, -187500.02235174447, -187500.02235174447, -187500.02235174447, -187500.02235174447, -187500.02235174447, 0.438, 0.122, 0.896, 192.0, 0.0, 0.0, 0.0, 0.0, 0.0, 0.0, 0.0, 0.0, 0.0, 1.716197632867391E9, 0.0, 2024-05-20 12:33:52.867
2.0, -1947.8874740466447, -187500.02235174447, -187500.02235174447, -187500.02235174447, -187500.02235174447, -187500.02235174447, -187500.02235174447, -187500.02235174447, 0.438, 0.122, 0.896, 192.0, 0.0, 0.0, 0.0, 0.0, 0.0, 0.0, 0.0, 0.0, 0.0, 1.7161976328703785E9, 0.0, 2024-05-20 12:33:52.870
3.0, -2047.2186264060292, -187500.02235174447, -187500.02235174447, -187500.02235174447, -187500.02235174447, -187500.02235174447, -187500.02235174447, -187500.02235174447, 0.438, 0.122, 0.896, 192.0, 0.0, 0.0, 0.0, 0.0, 0.0, 0.0, 0.0, 0.0, 0.0, 1.716197632874457E9, 0.0, 2024-05-20 12:33:52.874
4.0, -2049.4985043404704, -187500.02235174447, -187500.02235174447, -187500.02235174447, -187500.02235174447, -187500.02235174447, -187500.02235174447, -187500.02235174447, 0.436, 0.116, 0.892, 192.0, 13.0, 160.0, 3.0, 160.0, 27.0, 224.0, 0.0, 0.0, 0.0, 1.716197632878416E9, 0.0, 2024-05-20 12:33:52.878
5.0, -1991.0710443342978, -187500.02235174447, -187500.02235174447, -187500.02235174447, -187500.02235174447, -187500.02235174447, -187500.02235174447, -187500.02235174447, 0.436, 0.116, 0.892, 192.0, 0.0, 0.0, 0.0, 0.0, 0.0, 0.0, 0.0, 0.0, 0.0, 1.7161976328825524E9, 0.0, 2024-05-20 12:33:52.882
6.0, -1945.3393751787396, -187500.02235174447, -187500.02235174447, -187500.02235174447, -187500.02235174447, -187500.02235174447, -187500.02235174447, -187500.02235174447, 0.436, 0.116, 0.892, 192.0, 0.0, 0.0, 0.0, 0.0, 0.0, 0.0, 0.0, 0.0, 0.0, 1.716197632886474E9, 0.0, 2024-05-20 12:33:52.886
7.0, -1906.8720229711562, -187500.02235174447, -187500.02235174447, -187500.02235174447, -187500.02235174447, -187500.02235174447, -187500.02235174447, -187500.02235174447, 0.436, 0.116, 0.892, 192.0, 0.0, 0.0, 0.0, 0.0, 0.0, 0.0, 0.0, 0.0, 0.0, 1.716197632891478E9, 0.0, 2024-05-20 12:33:52.891
8.0, -1859.3298625147181, -187500.02235174447, -187500.02235174447, -187500.02235174447, -187500.02235174447, -187500.02235174447, -187500.02235174447, -187500.02235174447, 0.436, 0.116, 0.892, 192.0, 0.0, 0.0, 0.0, 0.0, 0.0, 0.0, 0.0, 0.0, 0.0, 1.7161976328955195E9, 0.0, 2024-05-20 12:33:52.895
9.0, -1901.8875839576226, -187500.02235174447, -187500.02235174447, -187500.02235174447, -187500.02235174447, -187500.02235174447, -187500.02235174447, -187500.02235174447, 0.436, 0.116, 0.892, 192.0, 0.0, 0.0, 0.0, 0.0, 0.0, 0.0, 0.0, 0.0, 0.0, 1.7161976328985376E9, 0.0, 2024-05-20 12:33:52.898
10.0, -1941.5619303657927, -187500.02235174447, -187500.02235174447, -187500.02235174447, -187500.02235174447, -187500.02235174447, -187500.02235174447, -187500.02235174447, 0.436, 0.116, 0.892, 192.0, 0.0, 0.0, 0.0, 0.0, 0.0, 0.0, 0.0, 0.0, 0.0, 1.716197632902521E9, 0.0, 2024-05-20 12:33:52.902
11.0, -1888.6553512400808, -187500.02235174447, -187500.02235174447, -187500.02235174447, -187500.02235174447, -187500.02235174447, -187500.02235174447, -187500.02235174447, 0.436, 0.116, 0.892, 192.0, 0.0, 0.0, 0.0, 0.0, 0.0, 0.0, 0.0, 0.0, 0.0, 1.7161976329065087E9, 0.0, 2024-05-20 12:33:52.906
12.0, -1801.7964722867575, -187500.02235174447, -187500.02235174447, -187500.02235174447, -187500.02235174447, -187500.02235174447, -187500.02235174447, -187500.02235174447, 0.436, 0.116, 0.892, 192.0, 0.0, 0.0, 0.0, 0.0, 0.0, 0.0, 0.0, 0.0, 0.0, 1.7161976329105291E9, 0.0, 2024-05-20 12:33:52.910
13.0, -1805.0821787216878, -187500.02235174447, -187500.02235174447, -187500.02235174447, -187500.02235174447, -187500.02235174447, -187500.02235174447, -187500.02235174447, 0.436, 0.116, 0.892, 192.0, 0.0, 0.0, 0.0, 0.0, 0.0, 0.0, 0.0, 0.0, 0.0, 1.716197632914539E9, 0.0, 2024-05-20 12:33:52.914
14.0, -1934.2082064399967, -187500.02235174447, -187500.02235174447, -187500.02235174447, -187500.02235174447, -187500.02235174447, -187500.02235174447, -187500.02235174447, 0.434, 0.116, 0.894, 192.0, 13.0, 144.0, 3.0, 160.0, 27.0, 240.0, 0.0, 0.0, 0.0, 1.716197632919597E9, 0.0, 2024-05-20 12:33:52.919
15.0, -1989.037035588865, -187500.02235174447, -187500.02235174447, -187500.02235174447, -187500.02235174447, -187500.02235174447, -187500.02235174447, -187500.02235174447, 0.434, 0.116, 0.894, 192.0, 0.0, 0.0, 0.0, 0.0, 0.0, 0.0, 0.0, 0.0, 0.0, 1.716197632922568E9, 0.0, 2024-05-20 12:33:52.922
16.0, -1910.42595033955, -187500.02235174447, -187500.02235174447, -187500.02235174447, -187500.02235174447, -187500.02235174447, -187500.02235174447, -187500.02235174447, 0.434, 0.116, 0.894, 192.0, 0.0, 0.0, 0.0, 0.0, 0.0, 0.0, 0.0, 0.0, 0.0, 1.7161976329276445E9, 0.0, 2024-05-20 12:33:52.927
17.0, -1884.296761071296, -187500.02235174447, -187500.02235174447, -187500.02235174447, -187500.02235174447, -187500.02235174447, -187500.02235174447, -187500.02235174447, 0.434, 0.116, 0.894, 192.0, 0.0, 0.0, 0.0, 0.0, 0.0, 0.0, 0.0, 0.0, 0.0, 1.7161976329306474E9, 0.0, 2024-05-20 12:33:52.930
18.0, -1888.9235721735445, -187500.02235174447, -187500.02235174447, -187500.02235174447, -187500.02235174447, -187500.02235174447, -187500.02235174447, -187500.02235174447, 0.434, 0.116, 0.894, 192.0, 0.0, 0.0, 0.0, 0.0, 0.0, 0.0, 0.0, 0.0, 0.0, 1.7161976329346468E9, 0.0, 2024-05-20 12:33:52.934
19.0, -1895.0255984098435, -187500.02235174447, -187500.02235174447, -187500.02235174447, -187500.02235174447, -187500.02235174447, -187500.02235174447, -187500.02235174447, 0.434, 0.116, 0.894, 192.0, 0.0, 0.0, 0.0, 0.0, 0.0, 0.0, 0.0, 0.0, 0.0, 1.716197632938652E9, 0.0, 2024-05-20 12:33:52.938
20.0, -1757.271797331786, -187500.02235174447, -187500.02235174447, -187500.02235174447, -187500.02235174447, -187500.02235174447, -187500.02235174447, -187500.02235174447, 0.434, 0.116, 0.894, 192.0, 0.0, 0.0, 0.0, 0.0, 0.0, 0.0, 0.0, 0.0, 0.0, 1.7161976329426832E9, 0.0, 2024-05-20 12:33:52.942
21.0, -1884.587333749215, -187500.02235174447, -187500.02235174447, -187500.02235174447, -187500.02235174447, -187500.02235174447, -187500.02235174447, -187500.02235174447, 0.434, 0.116, 0.894, 192.0, 0.0, 0.0, 0.0, 0.0, 0.0, 0.0, 0.0, 0.0, 0.0, 1.7161976329486873E9, 0.0, 2024-05-20 12:33:52.948
22.0, -1994.3343990247727, -187500.02235174447, -187500.02235174447, -187500.02235174447, -187500.02235174447, -187500.02235174447, -187500.02235174447, -187500.02235174447, 0.434, 0.116, 0.894, 192.0, 0.0, 0.0, 0.0, 0.0, 0.0, 0.0, 0.0, 0.0, 0.0, 1.7161976329517329E9, 0.0, 2024-05-20 12:33:52.951
23.0, -1908.3695898496617, -187500.02235174447, -187500.02235174447, -187500.02235174447, -187500.02235174447, -187500.02235174447, -187500.02235174447, -187500.02235174447, 0.434, 0.116, 0.894, 192.0, 0.0, 0.0, 0.0, 0.0, 0.0, 0.0, 0.0, 0.0, 0.0, 1.7161976329557383E9, 0.0, 2024-05-20 12:33:52.955
24.0, -1806.9150217670228, -187500.02235174447, -187500.02235174447, -187500.02235174447, -187500.02235174447, -187500.02235174447, -187500.02235174447, -187500.02235174447, 0.43, 0.126, 0.898, 192.0, 13.0, 112.0, 3.0, 240.0, 28.0, 16.0, 0.0, 0.0, 0.0, 1.7161976329587185E9, 0.0, 2024-05-20 12:33:52.958
25.0, -1757.4506112874285, -187500.02235174447, -187500.02235174447, -187500.02235174447, -187500.02235174447, -187500.02235174447, -187500.02235174447, -187500.02235174447, 0.43, 0.126, 0.898, 192.0, 0.0, 0.0, 0.0, 0.0, 0.0, 0.0, 0.0, 0.0, 0.0, 1.7161976329627452E9, 0.0, 2024-05-20 12:33:52.962
26.0, -2008.1030736092418, -187500.02235174447, -187500.02235174447, -187500.02235174447, -187500.02235174447, -187500.02235174447, -187500.02235174447, -187500.02235174447, 0.43, 0.126, 0.898, 192.0, 0.0, 0.0, 0.0, 0.0, 0.0, 0.0, 0.0, 0.0, 0.0, 1.7161976329667397E9, 0.0, 2024-05-20 12:33:52.966
27.0, -2032.8911582101773, -187500.02235174447, -187500.02235174447, -187500.02235174447, -187500.02235174447, -187500.02235174447, -187500.02235174447, -187500.02235174447, 0.43, 0.126, 0.898, 192.0, 0.0, 0.0, 0.0, 0.0, 0.0, 0.0, 0.0, 0.0, 0.0, 1.7161976329707675E9, 0.0, 2024-05-20 12:33:52.970
28.0, -1845.6058914191594, -187500.02235174447, -187500.02235174447, -187500.02235174447, -187500.02235174447, -187500.02235174447, -187500.02235174447, -187500.02235174447, 0.43, 0.126, 0.898, 192.0, 0.0, 0.0, 0.0, 0.0, 0.0, 0.0, 0.0, 0.0, 0.0, 1.7161976329747732E9, 0.0, 2024-05-20 12:33:52.974
29.0, -1801.5506030977492, -187500.02235174447, -187500.02235174447, -187500.02235174447, -187500.02235174447, -187500.02235174447, -187500.02235174447, -187500.02235174447, 0.43, 0.126, 0.898, 192.0, 0.0, 0.0, 0.0, 0.0, 0.0, 0.0, 0.0, 0.0, 0.0, 1.7161976329789324E9, 0.0, 2024-05-20 12:33:52.978
30.0, -2017.6249167472026, -187500.02235174447, -187500.02235174447, -187500.02235174447, -187500.02235174447, -187500.02235174447, -187500.02235174447, -187500.02235174447, 0.43, 0.126, 0.898, 192.0, 0.0, 0.0, 0.0, 0.0, 0.0, 0.0, 0.0, 0.0, 0.0, 1.716197632981812E9, 0.0, 2024-05-20 12:33:52.981
31.0, -2022.2070243605406, -187500.02235174447, -187500.02235174447, -187500.02235174447, -187500.02235174447, -187500.02235174447, -187500.02235174447, -187500.02235174447, 0.43, 0.126, 0.898, 192.0, 0.0, 0.0, 0.0, 0.0, 0.0, 0.0, 0.0, 0.0, 0.0, 1.7161976329868324E9, 0.0, 2024-05-20 12:33:52.986
32.0, -1900.457072312483, -187500.02235174447, -187500.02235174447, -187500.02235174447, -187500.02235174447, -187500.02235174447, -187500.02235174447, -187500.02235174447, 0.43, 0.126, 0.898, 192.0, 0.0, 0.0, 0.0, 0.0, 0.0, 0.0, 0.0, 0.0, 0.0, 1.7161976329908469E9, 0.0, 2024-05-20 12:33:52.990
33.0, -1870.5280864868269, -187500.02235174447, -187500.02235174447, -187500.02235174447, -187500.02235174447, -187500.02235174447, -187500.02235174447, -187500.02235174447, 0.43, 0.126, 0.898, 192.0, 0.0, 0.0, 0.0, 0.0, 0.0, 0.0, 0.0, 0.0, 0.0, 1.7161976329948575E9, 0.0, 2024-05-20 12:33:52.994
34.0, -1861.0285950933214, -187500.02235174447, -187500.02235174447, -187500.02235174447, -187500.02235174447, -187500.02235174447, -187500.02235174447, -187500.02235174447, 0.432, 0.122, 0.896, 192.0, 13.0, 128.0, 3.0, 208.0, 28.0, 0.0, 0.0, 0.0, 0.0, 1.7161976329988437E9, 0.0, 2024-05-20 12:33:52.998
35.0, -1820.4825306513944, -187500.02235174447, -187500.02235174447, -187500.02235174447, -187500.02235174447, -187500.02235174447, -187500.02235174447, -187500.02235174447, 0.432, 0.122, 0.896, 192.0, 0.0, 0.0, 0.0, 0.0, 0.0, 0.0, 0.0, 0.0, 0.0, 1.7161976330028875E9, 0.0, 2024-05-20 12:33:53.002
36.0, -1796.5661640842159, -187500.02235174447, -187500.02235174447, -187500.02235174447, -187500.02235174447, -187500.02235174447, -187500.02235174447, -187500.02235174447, 0.432, 0.122, 0.896, 192.0, 0.0, 0.0, 0.0, 0.0, 0.0, 0.0, 0.0, 0.0, 0.0, 1.7161976330069788E9, 0.0, 2024-05-20 12:33:53.006
37.0, -1793.3251611381963, -187500.02235174447, -187500.02235174447, -187500.02235174447, -187500.02235174447, -187500.02235174447, -187500.02235174447, -187500.02235174447, 0.432, 0.122, 0.896, 192.0, 0.0, 0.0, 0.0, 0.0, 0.0, 0.0, 0.0, 0.0, 0.0, 1.7161976330119324E9, 0.0, 2024-05-20 12:33:53.011
38.0, -1608.2303653037984, -187500.02235174447, -187500.02235174447, -187500.02235174447, -187500.02235174447, -187500.02235174447, -187500.02235174447, -187500.02235174447, 0.432, 0.122, 0.896, 192.0, 0.0, 0.0, 0.0, 0.0, 0.0, 0.0, 0.0, 0.0, 0.0, 1.716197633015946E9, 0.0, 2024-05-20 12:33:53.015
39.0, -1796.87908850659, -187500.02235174447, -187500.02235174447, -187500.02235174447, -187500.02235174447, -187500.02235174447, -187500.02235174447, -187500.02235174447, 0.432, 0.122, 0.896, 192.0, 0.0, 0.0, 0.0, 0.0, 0.0, 0.0, 0.0, 0.0, 0.0, 1.7161976330189433E9, 0.0, 2024-05-20 12:33:53.018
40.0, -1974.8660296042003, -187500.02235174447, -187500.02235174447, -187500.02235174447, -187500.02235174447, -187500.02235174447, -187500.02235174447, -187500.02235174447, 0.432, 0.122, 0.896, 192.0, 0.0, 0.0, 0.0, 0.0, 0.0, 0.0, 0.0, 0.0, 0.0, 1.716197633022927E9, 0.0, 2024-05-20 12:33:53.022
41.0, -1874.551400488782, -187500.02235174447, -187500.02235174447, -187500.02235174447, -187500.02235174447, -187500.02235174447, -187500.02235174447, -187500.02235174447, 0.432, 0.122, 0.896, 192.0, 0.0, 0.0, 0.0, 0.0, 0.0, 0.0, 0.0, 0.0, 0.0, 1.7161976330279772E9, 0.0, 2024-05-20 12:33:53.027
42.0, -1947.3063286908066, -187500.02235174447, -187500.02235174447, -187500.02235174447, -187500.02235174447, -187500.02235174447, -187500.02235174447, -187500.02235174447, 0.432, 0.122, 0.896, 192.0, 0.0, 0.0, 0.0, 0.0, 0.0, 0.0, 0.0, 0.0, 0.0, 1.7161976330320385E9, 0.0, 2024-05-20 12:33:53.032
43.0, -1690.2612674547754, -187500.02235174447, -187500.02235174447, -187500.02235174447, -187500.02235174447, -187500.02235174447, -187500.02235174447, -187500.02235174447, 0.432, 0.12, 0.892, 192.0, 13.0, 128.0, 3.0, 192.0, 27.0, 224.0, 0.0, 0.0, 0.0, 1.7161976330350175E9, 0.0, 2024-05-20 12:33:53.035
44.0, -1723.1630352929874, -187500.02235174447, -187500.02235174447, -187500.02235174447, -187500.02235174447, -187500.02235174447, -187500.02235174447, -187500.02235174447, 0.432, 0.12, 0.892, 192.0, 0.0, 0.0, 0.0, 0.0, 0.0, 0.0, 0.0, 0.0, 0.0, 1.7161976330380359E9, 0.0, 2024-05-20 12:33:53.038
45.0, -2001.352846783739, -187500.02235174447, -187500.02235174447, -187500.02235174447, -187500.02235174447, -187500.02235174447, -187500.02235174447, -187500.02235174447, 0.432, 0.12, 0.892, 192.0, 0.0, 0.0, 0.0, 0.0, 0.0, 0.0, 0.0, 0.0, 0.0, 1.7161976330420415E9, 0.0, 2024-05-20 12:33:53.042
46.0, -1976.5424104383483, -187500.02235174447, -187500.02235174447, -187500.02235174447, -187500.02235174447, -187500.02235174447, -187500.02235174447, -187500.02235174447, 0.432, 0.12, 0.892, 192.0, 0.0, 0.0, 0.0, 0.0, 0.0, 0.0, 0.0, 0.0, 0.0, 1.716197633046074E9, 0.0, 2024-05-20 12:33:53.046
47.0, -1903.4298543250388, -187500.02235174447, -187500.02235174447, -187500.02235174447, -187500.02235174447, -187500.02235174447, -187500.02235174447, -187500.02235174447, 0.432, 0.12, 0.892, 192.0, 0.0, 0.0, 0.0, 0.0, 0.0, 0.0, 0.0, 0.0, 0.0, 1.71619763305106E9, 0.0, 2024-05-20 12:33:53.051
48.0, -1702.2194507383647, -187500.02235174447, -187500.02235174447, -187500.02235174447, -187500.02235174447, -187500.02235174447, -187500.02235174447, -187500.02235174447, 0.432, 0.12, 0.892, 192.0, 0.0, 0.0, 0.0, 0.0, 0.0, 0.0, 0.0, 0.0, 0.0, 1.716197633055062E9, 0.0, 2024-05-20 12:33:53.055
49.0, -1753.427297285473, -187500.02235174447, -187500.02235174447, -187500.02235174447, -187500.02235174447, -187500.02235174447, -187500.02235174447, -187500.02235174447, 0.432, 0.12, 0.892, 192.0, 0.0, 0.0, 0.0, 0.0, 0.0, 0.0, 0.0, 0.0, 0.0, 1.716197633058098E9, 0.0, 2024-05-20 12:33:53.058
50.0, -1841.9178535840338, -187500.02235174447, -187500.02235174447, -187500.02235174447, -187500.02235174447, -187500.02235174447, -187500.02235174447, -187500.02235174447, 0.432, 0.12, 0.892, 192.0, 0.0, 0.0, 0.0, 0.0, 0.0, 0.0, 0.0, 0.0, 0.0, 1.7161976330621789E9, 0.0, 2024-05-20 12:33:53.062
51.0, -1882.262752325863, -187500.02235174447, -187500.02235174447, -187500.02235174447, -187500.02235174447, -187500.02235174447, -187500.02235174447, -187500.02235174447, 0.432, 0.12, 0.892, 192.0, 0.0, 0.0, 0.0, 0.0, 0.0, 0.0, 0.0, 0.0, 0.0, 1.7161976330661993E9, 0.0, 2024-05-20 12:33:53.066
52.0, -1931.973031994466, -187500.02235174447, -187500.02235174447, -187500.02235174447, -187500.02235174447, -187500.02235174447, -187500.02235174447, -187500.02235174447, 0.432, 0.12, 0.892, 192.0, 0.0, 0.0, 0.0, 0.0, 0.0, 0.0, 0.0, 0.0, 0.0, 1.716197633070305E9, 0.0, 2024-05-20 12:33:53.070
53.0, -1780.2940941207523, -187500.02235174447, -187500.02235174447, -187500.02235174447, -187500.02235174447, -187500.02235174447, -187500.02235174447, -187500.02235174447, 0.432, 0.12, 0.888, 192.0, 13.0, 128.0, 3.0, 192.0, 27.0, 192.0, 0.0, 0.0, 0.0, 1.7161976330741909E9, 0.0, 2024-05-20 12:33:53.074
54.0, -1677.9678080043566, -187500.02235174447, -187500.02235174447, -187500.02235174447, -187500.02235174447, -187500.02235174447, -187500.02235174447, -187500.02235174447, 0.432, 0.12, 0.888, 192.0, 0.0, 0.0, 0.0, 0.0, 0.0, 0.0, 0.0, 0.0, 0.0, 1.7161976330791526E9, 0.0, 2024-05-20 12:33:53.079
55.0, -1798.0860827071767, -187500.02235174447, -187500.02235174447, -187500.02235174447, -187500.02235174447, -187500.02235174447, -187500.02235174447, -187500.02235174447, 0.432, 0.12, 0.888, 192.0, 0.0, 0.0, 0.0, 0.0, 0.0, 0.0, 0.0, 0.0, 0.0, 1.716197633083188E9, 0.0, 2024-05-20 12:33:53.083
56.0, -1797.5496408402494, -187500.02235174447, -187500.02235174447, -187500.02235174447, -187500.02235174447, -187500.02235174447, -187500.02235174447, -187500.02235174447, 0.432, 0.12, 0.888, 192.0, 0.0, 0.0, 0.0, 0.0, 0.0, 0.0, 0.0, 0.0, 0.0, 1.7161976330862093E9, 0.0, 2024-05-20 12:33:53.086
57.0, -1803.495204865361, -187500.02235174447, -187500.02235174447, -187500.02235174447, -187500.02235174447, -187500.02235174447, -187500.02235174447, -187500.02235174447, 0.432, 0.12, 0.888, 192.0, 0.0, 0.0, 0.0, 0.0, 0.0, 0.0, 0.0, 0.0, 0.0, 1.71619763309019E9, 0.0, 2024-05-20 12:33:53.090
58.0, -1814.2240422039083, -187500.02235174447, -187500.02235174447, -187500.02235174447, -187500.02235174447, -187500.02235174447, -187500.02235174447, -187500.02235174447, 0.432, 0.12, 0.888, 192.0, 0.0, 0.0, 0.0, 0.0, 0.0, 0.0, 0.0, 0.0, 0.0, 1.716197633094216E9, 0.0, 2024-05-20 12:33:53.094
59.0, -1746.6770704599703, -187500.02235174447, -187500.02235174447, -187500.02235174447, -187500.02235174447, -187500.02235174447, -187500.02235174447, -187500.02235174447, 0.432, 0.12, 0.888, 192.0, 0.0, 0.0, 0.0, 0.0, 0.0, 0.0, 0.0, 0.0, 0.0, 1.7161976330982606E9, 0.0, 2024-05-20 12:33:53.098
60.0, -1692.9434767894122, -187500.02235174447, -187500.02235174447, -187500.02235174447, -187500.02235174447, -187500.02235174447, -187500.02235174447, -187500.02235174447, 0.432, 0.12, 0.888, 192.0, 0.0, 0.0, 0.0, 0.0, 0.0, 0.0, 0.0, 0.0, 0.0, 1.716197633104334E9, 0.0, 2024-05-20 12:33:53.104
61.0, -1786.2843616347745, -187500.02235174447, -187500.02235174447, -187500.02235174447, -187500.02235174447, -187500.02235174447, -187500.02235174447, -187500.02235174447, 0.432, 0.12, 0.888, 192.0, 0.0, 0.0, 0.0, 0.0, 0.0, 0.0, 0.0, 0.0, 0.0, 1.7161976331073265E9, 0.0, 2024-05-20 12:33:53.107
62.0, -1744.4195442699845, -187500.02235174447, -187500.02235174447, -187500.02235174447, -187500.02235174447, -187500.02235174447, -187500.02235174447, -187500.02235174447, 0.432, 0.12, 0.888, 192.0, 0.0, 0.0, 0.0, 0.0, 0.0, 0.0, 0.0, 0.0, 0.0, 1.7161976331123233E9, 0.0, 2024-05-20 12:33:53.112
63.0, -1706.823910096158, -187500.02235174447, -187500.02235174447, -187500.02235174447, -187500.02235174447, -187500.02235174447, -187500.02235174447, -187500.02235174447, 0.428, 0.13, 0.892, 192.0, 13.0, 96.0, 4.0, 16.0, 27.0, 224.0, 0.0, 0.0, 0.0, 1.716197633115284E9, 0.0, 2024-05-20 12:33:53.115
64.0, -1836.1734552590199, -187500.02235174447, -187500.02235174447, -187500.02235174447, -187500.02235174447, -187500.02235174447, -187500.02235174447, -187500.02235174447, 0.428, 0.13, 0.892, 192.0, 0.0, 0.0, 0.0, 0.0, 0.0, 0.0, 0.0, 0.0, 0.0, 1.7161976331193645E9, 0.0, 2024-05-20 12:33:53.119
65.0, -1833.5359494132936, -187500.02235174447, -187500.02235174447, -187500.02235174447, -187500.02235174447, -187500.02235174447, -187500.02235174447, -187500.02235174447, 0.428, 0.13, 0.892, 192.0, 0.0, 0.0, 0.0, 0.0, 0.0, 0.0, 0.0, 0.0, 0.0, 1.7161976331223583E9, 0.0, 2024-05-20 12:33:53.122
66.0, -1821.2871934517855, -187500.02235174447, -187500.02235174447, -187500.02235174447, -187500.02235174447, -187500.02235174447, -187500.02235174447, -187500.02235174447, 0.428, 0.13, 0.892, 192.0, 0.0, 0.0, 0.0, 0.0, 0.0, 0.0, 0.0, 0.0, 0.0, 1.716197633126335E9, 0.0, 2024-05-20 12:33:53.126
67.0, -1746.2970908042303, -187500.02235174447, -187500.02235174447, -187500.02235174447, -187500.02235174447, -187500.02235174447, -187500.02235174447, -187500.02235174447, 0.428, 0.13, 0.892, 192.0, 0.0, 0.0, 0.0, 0.0, 0.0, 0.0, 0.0, 0.0, 0.0, 1.7161976331303332E9, 0.0, 2024-05-20 12:33:53.130
68.0, -1868.9187608860448, -187500.02235174447, -187500.02235174447, -187500.02235174447, -187500.02235174447, -187500.02235174447, -187500.02235174447, -187500.02235174447, 0.428, 0.13, 0.892, 192.0, 0.0, 0.0, 0.0, 0.0, 0.0, 0.0, 0.0, 0.0, 0.0, 1.7161976331343613E9, 0.0, 2024-05-20 12:33:53.134
69.0, -1844.3765454741176, -187500.02235174447, -187500.02235174447, -187500.02235174447, -187500.02235174447, -187500.02235174447, -187500.02235174447, -187500.02235174447, 0.428, 0.13, 0.892, 192.0, 0.0, 0.0, 0.0, 0.0, 0.0, 0.0, 0.0, 0.0, 0.0, 1.7161976331394076E9, 0.0, 2024-05-20 12:33:53.139
70.0, -1716.8374916121354, -187500.02235174447, -187500.02235174447, -187500.02235174447, -187500.02235174447, -187500.02235174447, -187500.02235174447, -187500.02235174447, 0.428, 0.13, 0.892, 192.0, 0.0, 0.0, 0.0, 0.0, 0.0, 0.0, 0.0, 0.0, 0.0, 1.7161976331424284E9, 0.0, 2024-05-20 12:33:53.142
71.0, -1599.2226122883096, -187500.02235174447, -187500.02235174447, -187500.02235174447, -187500.02235174447, -187500.02235174447, -187500.02235174447, -187500.02235174447, 0.428, 0.13, 0.892, 192.0, 0.0, 0.0, 0.0, 0.0, 0.0, 0.0, 0.0, 0.0, 0.0, 1.7161976331454167E9, 0.0, 2024-05-20 12:33:53.145
72.0, -1646.5859587891055, -187500.02235174447, -187500.02235174447, -187500.02235174447, -187500.02235174447, -187500.02235174447, -187500.02235174447, -187500.02235174447, 0.428, 0.13, 0.892, 192.0, 0.0, 0.0, 0.0, 0.0, 0.0, 0.0, 0.0, 0.0, 0.0, 1.7161976331504576E9, 0.0, 2024-05-20 12:33:53.150
73.0, -1836.2181587479306, -187500.02235174447, -187500.02235174447, -187500.02235174447, -187500.02235174447, -187500.02235174447, -187500.02235174447, -187500.02235174447, 0.424, 0.136, 0.892, 192.0, 13.0, 64.0, 4.0, 64.0, 27.0, 224.0, 0.0, 0.0, 0.0, 1.716197633154446E9, 0.0, 2024-05-20 12:33:53.154
74.0, -1800.812995530724, -187500.02235174447, -187500.02235174447, -187500.02235174447, -187500.02235174447, -187500.02235174447, -187500.02235174447, -187500.02235174447, 0.424, 0.136, 0.892, 192.0, 0.0, 0.0, 0.0, 0.0, 0.0, 0.0, 0.0, 0.0, 0.0, 1.716197633158486E9, 0.0, 2024-05-20 12:33:53.158
75.0, -1837.6263186486149, -187500.02235174447, -187500.02235174447, -187500.02235174447, -187500.02235174447, -187500.02235174447, -187500.02235174447, -187500.02235174447, 0.424, 0.136, 0.892, 192.0, 0.0, 0.0, 0.0, 0.0, 0.0, 0.0, 0.0, 0.0, 0.0, 1.716197633162496E9, 0.0, 2024-05-20 12:33:53.162
76.0, -1628.5257492692174, -187500.02235174447, -187500.02235174447, -187500.02235174447, -187500.02235174447, -187500.02235174447, -187500.02235174447, -187500.02235174447, 0.424, 0.136, 0.892, 192.0, 0.0, 0.0, 0.0, 0.0, 0.0, 0.0, 0.0, 0.0, 0.0, 1.7161976331655035E9, 0.0, 2024-05-20 12:33:53.165
77.0, -1552.0604314876118, -187500.02235174447, -187500.02235174447, -187500.02235174447, -187500.02235174447, -187500.02235174447, -187500.02235174447, -187500.02235174447, 0.424, 0.136, 0.892, 192.0, 0.0, 0.0, 0.0, 0.0, 0.0, 0.0, 0.0, 0.0, 0.0, 1.7161976331695626E9, 0.0, 2024-05-20 12:33:53.169
78.0, -1668.9377032444124, -187500.02235174447, -187500.02235174447, -187500.02235174447, -187500.02235174447, -187500.02235174447, -187500.02235174447, -187500.02235174447, 0.424, 0.136, 0.892, 192.0, 0.0, 0.0, 0.0, 0.0, 0.0, 0.0, 0.0, 0.0, 0.0, 1.7161976331735427E9, 0.0, 2024-05-20 12:33:53.173
79.0, -1759.5069717773167, -187500.02235174447, -187500.02235174447, -187500.02235174447, -187500.02235174447, -187500.02235174447, -187500.02235174447, -187500.02235174447, 0.424, 0.136, 0.892, 192.0, 0.0, 0.0, 0.0, 0.0, 0.0, 0.0, 0.0, 0.0, 0.0, 1.716197633178589E9, 0.0, 2024-05-20 12:33:53.178
80.0, -1751.6615094735039, -187500.02235174447, -187500.02235174447, -187500.02235174447, -187500.02235174447, -187500.02235174447, -187500.02235174447, -187500.02235174447, 0.424, 0.136, 0.892, 192.0, 0.0, 0.0, 0.0, 0.0, 0.0, 0.0, 0.0, 0.0, 0.0, 1.716197633182548E9, 0.0, 2024-05-20 12:33:53.182
81.0, -1659.818191506647, -187500.02235174447, -187500.02235174447, -187500.02235174447, -187500.02235174447, -187500.02235174447, -187500.02235174447, -187500.02235174447, 0.424, 0.136, 0.892, 192.0, 0.0, 0.0, 0.0, 0.0, 0.0, 0.0, 0.0, 0.0, 0.0, 1.7161976331865888E9, 0.0, 2024-05-20 12:33:53.186
82.0, -1587.2420772602652, -187500.02235174447, -187500.02235174447, -187500.02235174447, -187500.02235174447, -187500.02235174447, -187500.02235174447, -187500.02235174447, 0.418, 0.136, 0.894, 192.0, 13.0, 16.0, 4.0, 64.0, 27.0, 240.0, 0.0, 0.0, 0.0, 1.7161976331905935E9, 0.0, 2024-05-20 12:33:53.190
83.0, -1809.396065401562, -187500.02235174447, -187500.02235174447, -187500.02235174447, -187500.02235174447, -187500.02235174447, -187500.02235174447, -187500.02235174447, 0.418, 0.136, 0.894, 192.0, 0.0, 0.0, 0.0, 0.0, 0.0, 0.0, 0.0, 0.0, 0.0, 1.7161976331936345E9, 0.0, 2024-05-20 12:33:53.193
84.0, -1886.8448599392011, -187500.02235174447, -187500.02235174447, -187500.02235174447, -187500.02235174447, -187500.02235174447, -187500.02235174447, -187500.02235174447, 0.418, 0.136, 0.894, 192.0, 0.0, 0.0, 0.0, 0.0, 0.0, 0.0, 0.0, 0.0, 0.0, 1.7161976331976564E9, 0.0, 2024-05-20 12:33:53.197
85.0, -1797.0579024622325, -187500.02235174447, -187500.02235174447, -187500.02235174447, -187500.02235174447, -187500.02235174447, -187500.02235174447, -187500.02235174447, 0.418, 0.136, 0.894, 192.0, 0.0, 0.0, 0.0, 0.0, 0.0, 0.0, 0.0, 0.0, 0.0, 1.7161976332016373E9, 0.0, 2024-05-20 12:33:53.201
86.0, -1679.5100783717726, -187500.02235174447, -187500.02235174447, -187500.02235174447, -187500.02235174447, -187500.02235174447, -187500.02235174447, -187500.02235174447, 0.418, 0.136, 0.894, 192.0, 0.0, 0.0, 0.0, 0.0, 0.0, 0.0, 0.0, 0.0, 0.0, 1.7161976332057216E9, 0.0, 2024-05-20 12:33:53.205
87.0, -1537.0624109581008, -187500.02235174447, -187500.02235174447, -187500.02235174447, -187500.02235174447, -187500.02235174447, -187500.02235174447, -187500.02235174447, 0.418, 0.136, 0.894, 192.0, 0.0, 0.0, 0.0, 0.0, 0.0, 0.0, 0.0, 0.0, 0.0, 1.716197633210716E9, 0.0, 2024-05-20 12:33:53.210
88.0, -1629.531577769706, -187500.02235174447, -187500.02235174447, -187500.02235174447, -187500.02235174447, -187500.02235174447, -187500.02235174447, -187500.02235174447, 0.418, 0.136, 0.894, 192.0, 0.0, 0.0, 0.0, 0.0, 0.0, 0.0, 0.0, 0.0, 0.0, 1.7161976332146947E9, 0.0, 2024-05-20 12:33:53.214
89.0, -1764.334948579663, -187500.02235174447, -187500.02235174447, -187500.02235174447, -187500.02235174447, -187500.02235174447, -187500.02235174447, -187500.02235174447, 0.418, 0.136, 0.894, 192.0, 0.0, 0.0, 0.0, 0.0, 0.0, 0.0, 0.0, 0.0, 0.0, 1.7161976332187304E9, 0.0, 2024-05-20 12:33:53.218
90.0, -1839.1238855271204, -187500.02235174447, -187500.02235174447, -187500.02235174447, -187500.02235174447, -187500.02235174447, -187500.02235174447, -187500.02235174447, 0.418, 0.136, 0.894, 192.0, 0.0, 0.0, 0.0, 0.0, 0.0, 0.0, 0.0, 0.0, 0.0, 1.7161976332217202E9, 0.0, 2024-05-20 12:33:53.221
91.0, -1643.0767349096222, -187500.02235174447, -187500.02235174447, -187500.02235174447, -187500.02235174447, -187500.02235174447, -187500.02235174447, -187500.02235174447, 0.418, 0.136, 0.894, 192.0, 0.0, 0.0, 0.0, 0.0, 0.0, 0.0, 0.0, 0.0, 0.0, 1.716197633225731E9, 0.0, 2024-05-20 12:33:53.225
92.0, -1675.9561510033789, -187500.02235174447, -187500.02235174447, -187500.02235174447, -187500.02235174447, -187500.02235174447, -187500.02235174447, -187500.02235174447, 0.424, 0.13, 0.898, 192.0, 13.0, 64.0, 4.0, 16.0, 28.0, 16.0, 0.0, 0.0, 0.0, 1.7161976332297752E9, 0.0, 2024-05-20 12:33:53.229
93.0, -1801.5282513532939, -187500.02235174447, -187500.02235174447, -187500.02235174447, -187500.02235174447, -187500.02235174447, -187500.02235174447, -187500.02235174447, 0.424, 0.13, 0.898, 192.0, 0.0, 0.0, 0.0, 0.0, 0.0, 0.0, 0.0, 0.0, 0.0, 1.716197633233757E9, 0.0, 2024-05-20 12:33:53.233
94.0, -1643.5684732876389, -187500.02235174447, -187500.02235174447, -187500.02235174447, -187500.02235174447, -187500.02235174447, -187500.02235174447, -187500.02235174447, 0.424, 0.13, 0.898, 192.0, 0.0, 0.0, 0.0, 0.0, 0.0, 0.0, 0.0, 0.0, 0.0, 1.7161976332377584E9, 0.0, 2024-05-20 12:33:53.237
95.0, -1574.8815625764803, -187500.02235174447, -187500.02235174447, -187500.02235174447, -187500.02235174447, -187500.02235174447, -187500.02235174447, -187500.02235174447, 0.424, 0.13, 0.898, 192.0, 0.0, 0.0, 0.0, 0.0, 0.0, 0.0, 0.0, 0.0, 0.0, 1.7161976332429805E9, 0.0, 2024-05-20 12:33:53.242
96.0, -1663.3497671305856, -187500.02235174447, -187500.02235174447, -187500.02235174447, -187500.02235174447, -187500.02235174447, -187500.02235174447, -187500.02235174447, 0.424, 0.13, 0.898, 192.0, 0.0, 0.0, 0.0, 0.0, 0.0, 0.0, 0.0, 0.0, 0.0, 1.7161976332468476E9, 0.0, 2024-05-20 12:33:53.246
97.0, -1675.464412625362, -187500.02235174447, -187500.02235174447, -187500.02235174447, -187500.02235174447, -187500.02235174447, -187500.02235174447, -187500.02235174447, 0.424, 0.13, 0.898, 192.0, 0.0, 0.0, 0.0, 0.0, 0.0, 0.0, 0.0, 0.0, 0.0, 1.7161976332498193E9, 0.0, 2024-05-20 12:33:53.249
98.0, -1678.4148428934627, -187500.02235174447, -187500.02235174447, -187500.02235174447, -187500.02235174447, -187500.02235174447, -187500.02235174447, -187500.02235174447, 0.424, 0.13, 0.898, 192.0, 0.0, 0.0, 0.0, 0.0, 0.0, 0.0, 0.0, 0.0, 0.0, 1.7161976332538607E9, 0.0, 2024-05-20 12:33:53.253
99.0, -1693.725787845348, -187500.02235174447, -187500.02235174447, -187500.02235174447, -187500.02235174447, -187500.02235174447, -187500.02235174447, -187500.02235174447, 0.424, 0.13, 0.898, 192.0, 0.0, 0.0, 0.0, 0.0, 0.0, 0.0, 0.0, 0.0, 0.0, 1.716197633257857E9, 0.0, 2024-05-20 12:33:53.257
100.0, -1450.0694215380456, -187500.02235174447, -187500.02235174447, -187500.02235174447, -187500.02235174447, -187500.02235174447, -187500.02235174447, -187500.02235174447, 0.424, 0.13, 0.898, 192.0, 0.0, 0.0, 0.0, 0.0, 0.0, 0.0, 0.0, 0.0, 0.0, 1.7161976332619617E9, 0.0, 2024-05-20 12:33:53.261
101.0, -1721.307840503197, -187500.02235174447, -187500.02235174447, -187500.02235174447, -187500.02235174447, -187500.02235174447, -187500.02235174447, -187500.02235174447, 0.424, 0.13, 0.898, 192.0, 0.0, 0.0, 0.0, 0.0, 0.0, 0.0, 0.0, 0.0, 0.0, 1.716197633265869E9, 0.0, 2024-05-20 12:33:53.265
102.0, -1816.5709753717156, -187500.02235174447, -187500.02235174447, -187500.02235174447, -187500.02235174447, -187500.02235174447, -187500.02235174447, -187500.02235174447, 0.42, 0.14, 0.892, 192.0, 13.0, 32.0, 4.0, 96.0, 27.0, 224.0, 0.0, 0.0, 0.0, 1.7161976332718987E9, 0.0, 2024-05-20 12:33:53.271
103.0, -1721.4419509699287, -187500.02235174447, -187500.02235174447, -187500.02235174447, -187500.02235174447, -187500.02235174447, -187500.02235174447, -187500.02235174447, 0.42, 0.14, 0.892, 192.0, 0.0, 0.0, 0.0, 0.0, 0.0, 0.0, 0.0, 0.0, 0.0, 1.7161976332749267E9, 0.0, 2024-05-20 12:33:53.274
104.0, -1661.4275171074294, -187500.02235174447, -187500.02235174447, -187500.02235174447, -187500.02235174447, -187500.02235174447, -187500.02235174447, -187500.02235174447, 0.42, 0.14, 0.892, 192.0, 0.0, 0.0, 0.0, 0.0, 0.0, 0.0, 0.0, 0.0, 0.0, 1.716197633278977E9, 0.0, 2024-05-20 12:33:53.278
105.0, -1630.17977835891, -187500.02235174447, -187500.02235174447, -187500.02235174447, -187500.02235174447, -187500.02235174447, -187500.02235174447, -187500.02235174447, 0.42, 0.14, 0.892, 192.0, 0.0, 0.0, 0.0, 0.0, 0.0, 0.0, 0.0, 0.0, 0.0, 1.7161976332819853E9, 0.0, 2024-05-20 12:33:53.281
106.0, -1670.859953267569, -187500.02235174447, -187500.02235174447, -187500.02235174447, -187500.02235174447, -187500.02235174447, -187500.02235174447, -187500.02235174447, 0.42, 0.14, 0.892, 192.0, 0.0, 0.0, 0.0, 0.0, 0.0, 0.0, 0.0, 0.0, 0.0, 1.7161976332859676E9, 0.0, 2024-05-20 12:33:53.285
107.0, -1550.83108554257, -187500.02235174447, -187500.02235174447, -187500.02235174447, -187500.02235174447, -187500.02235174447, -187500.02235174447, -187500.02235174447, 0.42, 0.14, 0.892, 192.0, 0.0, 0.0, 0.0, 0.0, 0.0, 0.0, 0.0, 0.0, 0.0, 1.7161976332899845E9, 0.0, 2024-05-20 12:33:53.289
108.0, -1685.8132703081692, -187500.02235174447, -187500.02235174447, -187500.02235174447, -187500.02235174447, -187500.02235174447, -187500.02235174447, -187500.02235174447, 0.42, 0.14, 0.892, 192.0, 0.0, 0.0, 0.0, 0.0, 0.0, 0.0, 0.0, 0.0, 0.0, 1.716197633294016E9, 0.0, 2024-05-20 12:33:53.294
109.0, -1686.1932499639095, -187500.02235174447, -187500.02235174447, -187500.02235174447, -187500.02235174447, -187500.02235174447, -187500.02235174447, -187500.02235174447, 0.42, 0.14, 0.892, 192.0, 0.0, 0.0, 0.0, 0.0, 0.0, 0.0, 0.0, 0.0, 0.0, 1.716197633299044E9, 0.0, 2024-05-20 12:33:53.299
110.0, -1556.9331117788688, -187500.02235174447, -187500.02235174447, -187500.02235174447, -187500.02235174447, -187500.02235174447, -187500.02235174447, -187500.02235174447, 0.42, 0.14, 0.892, 192.0, 0.0, 0.0, 0.0, 0.0, 0.0, 0.0, 0.0, 0.0, 0.0, 1.7161976333021295E9, 0.0, 2024-05-20 12:33:53.302
111.0, -1613.1701008284213, -187500.02235174447, -187500.02235174447, -187500.02235174447, -187500.02235174447, -187500.02235174447, -187500.02235174447, -187500.02235174447, 0.42, 0.14, 0.892, 192.0, 0.0, 0.0, 0.0, 0.0, 0.0, 0.0, 0.0, 0.0, 0.0, 1.7161976333050528E9, 0.0, 2024-05-20 12:33:53.305
112.0, -1570.0312340296787, -187500.02235174447, -187500.02235174447, -187500.02235174447, -187500.02235174447, -187500.02235174447, -187500.02235174447, -187500.02235174447, 0.418, 0.15, 0.9, 192.0, 13.0, 16.0, 4.0, 176.0, 28.0, 32.0, 0.0, 0.0, 0.0, 1.7161976333100605E9, 0.0, 2024-05-20 12:33:53.310
113.0, -1511.8049397236039, -187500.02235174447, -187500.02235174447, -187500.02235174447, -187500.02235174447, -187500.02235174447, -187500.02235174447, -187500.02235174447, 0.418, 0.15, 0.9, 192.0, 0.0, 0.0, 0.0, 0.0, 0.0, 0.0, 0.0, 0.0, 0.0, 1.716197633314072E9, 0.0, 2024-05-20 12:33:53.314
114.0, -1667.082508454622, -187500.02235174447, -187500.02235174447, -187500.02235174447, -187500.02235174447, -187500.02235174447, -187500.02235174447, -187500.02235174447, 0.418, 0.15, 0.9, 192.0, 0.0, 0.0, 0.0, 0.0, 0.0, 0.0, 0.0, 0.0, 0.0, 1.716197633318108E9, 0.0, 2024-05-20 12:33:53.318
115.0, -1710.6013549091049, -187500.02235174447, -187500.02235174447, -187500.02235174447, -187500.02235174447, -187500.02235174447, -187500.02235174447, -187500.02235174447, 0.418, 0.15, 0.9, 192.0, 0.0, 0.0, 0.0, 0.0, 0.0, 0.0, 0.0, 0.0, 0.0, 1.7161976333221593E9, 0.0, 2024-05-20 12:33:53.322
116.0, -1737.1999308109203, -187500.02235174447, -187500.02235174447, -187500.02235174447, -187500.02235174447, -187500.02235174447, -187500.02235174447, -187500.02235174447, 0.418, 0.15, 0.9, 192.0, 0.0, 0.0, 0.0, 0.0, 0.0, 0.0, 0.0, 0.0, 0.0, 1.7161976333262224E9, 0.0, 2024-05-20 12:33:53.326
117.0, -1694.9327820459346, -187500.02235174447, -187500.02235174447, -187500.02235174447, -187500.02235174447, -187500.02235174447, -187500.02235174447, -187500.02235174447, 0.418, 0.15, 0.9, 192.0, 0.0, 0.0, 0.0, 0.0, 0.0, 0.0, 0.0, 0.0, 0.0, 1.7161976333301892E9, 0.0, 2024-05-20 12:33:53.330
118.0, -1690.2836191992308, -187500.02235174447, -187500.02235174447, -187500.02235174447, -187500.02235174447, -187500.02235174447, -187500.02235174447, -187500.02235174447, 0.418, 0.15, 0.9, 192.0, 0.0, 0.0, 0.0, 0.0, 0.0, 0.0, 0.0, 0.0, 0.0, 1.7161976333331995E9, 0.0, 2024-05-20 12:33:53.333
119.0, -1636.013583661745, -187500.02235174447, -187500.02235174447, -187500.02235174447, -187500.02235174447, -187500.02235174447, -187500.02235174447, -187500.02235174447, 0.418, 0.15, 0.9, 192.0, 0.0, 0.0, 0.0, 0.0, 0.0, 0.0, 0.0, 0.0, 0.0, 1.716197633337222E9, 0.0, 2024-05-20 12:33:53.337
120.0, -1606.4645774918292, -187500.02235174447, -187500.02235174447, -187500.02235174447, -187500.02235174447, -187500.02235174447, -187500.02235174447, -187500.02235174447, 0.418, 0.15, 0.9, 192.0, 0.0, 0.0, 0.0, 0.0, 0.0, 0.0, 0.0, 0.0, 0.0, 1.7161976333421893E9, 0.0, 2024-05-20 12:33:53.342
121.0, -1677.5207731152504, -187500.02235174447, -187500.02235174447, -187500.02235174447, -187500.02235174447, -187500.02235174447, -187500.02235174447, -187500.02235174447, 0.41600000000000004, 0.156, 0.906, 192.0, 13.0, 0.0, 4.0, 224.0, 28.0, 80.0, 0.0, 0.0, 0.0, 1.716197633346203E9, 0.0, 2024-05-20 12:33:53.346
122.0, -1623.8318829336029, -187500.02235174447, -187500.02235174447, -187500.02235174447, -187500.02235174447, -187500.02235174447, -187500.02235174447, -187500.02235174447, 0.41600000000000004, 0.156, 0.906, 192.0, 0.0, 0.0, 0.0, 0.0, 0.0, 0.0, 0.0, 0.0, 0.0, 1.7161976333515165E9, 0.0, 2024-05-20 12:33:53.351
123.0, -1670.0999939560884, -187500.02235174447, -187500.02235174447, -187500.02235174447, -187500.02235174447, -187500.02235174447, -187500.02235174447, -187500.02235174447, 0.41600000000000004, 0.156, 0.906, 192.0, 0.0, 0.0, 0.0, 0.0, 0.0, 0.0, 0.0, 0.0, 0.0, 1.7161976333563485E9, 0.0, 2024-05-20 12:33:53.356
124.0, -1655.4148978489516, -187500.02235174447, -187500.02235174447, -187500.02235174447, -187500.02235174447, -187500.02235174447, -187500.02235174447, -187500.02235174447, 0.41600000000000004, 0.156, 0.906, 192.0, 0.0, 0.0, 0.0, 0.0, 0.0, 0.0, 0.0, 0.0, 0.0, 1.7161976333592565E9, 0.0, 2024-05-20 12:33:53.359
125.0, -1613.7735979287147, -187500.02235174447, -187500.02235174447, -187500.02235174447, -187500.02235174447, -187500.02235174447, -187500.02235174447, -187500.02235174447, 0.41600000000000004, 0.156, 0.906, 192.0, 0.0, 0.0, 0.0, 0.0, 0.0, 0.0, 0.0, 0.0, 0.0, 1.7161976333623214E9, 0.0, 2024-05-20 12:33:53.362
126.0, -1553.7144605773046, -187500.02235174447, -187500.02235174447, -187500.02235174447, -187500.02235174447, -187500.02235174447, -187500.02235174447, -187500.02235174447, 0.41600000000000004, 0.156, 0.906, 192.0, 0.0, 0.0, 0.0, 0.0, 0.0, 0.0, 0.0, 0.0, 0.0, 1.7161976333662744E9, 0.0, 2024-05-20 12:33:53.366
127.0, -1442.5368836566072, -187500.02235174447, -187500.02235174447, -187500.02235174447, -187500.02235174447, -187500.02235174447, -187500.02235174447, -187500.02235174447, 0.41600000000000004, 0.156, 0.906, 192.0, 0.0, 0.0, 0.0, 0.0, 0.0, 0.0, 0.0, 0.0, 0.0, 1.7161976333703067E9, 0.0, 2024-05-20 12:33:53.370
128.0, -1650.0281274352226, -187500.02235174447, -187500.02235174447, -187500.02235174447, -187500.02235174447, -187500.02235174447, -187500.02235174447, -187500.02235174447, 0.41600000000000004, 0.156, 0.906, 192.0, 0.0, 0.0, 0.0, 0.0, 0.0, 0.0, 0.0, 0.0, 0.0, 1.7161976333742795E9, 0.0, 2024-05-20 12:33:53.374
129.0, -1771.2639893608082, -187500.02235174447, -187500.02235174447, -187500.02235174447, -187500.02235174447, -187500.02235174447, -187500.02235174447, -187500.02235174447, 0.41600000000000004, 0.156, 0.906, 192.0, 0.0, 0.0, 0.0, 0.0, 0.0, 0.0, 0.0, 0.0, 0.0, 1.7161976333783853E9, 0.0, 2024-05-20 12:33:53.378
130.0, -1543.6338238279611, -187500.02235174447, -187500.02235174447, -187500.02235174447, -187500.02235174447, -187500.02235174447, -187500.02235174447, -187500.02235174447, 0.41600000000000004, 0.156, 0.906, 192.0, 0.0, 0.0, 0.0, 0.0, 0.0, 0.0, 0.0, 0.0, 0.0, 1.716197633382338E9, 0.0, 2024-05-20 12:33:53.382
131.0, -1454.964453573758, -187500.02235174447, -187500.02235174447, -187500.02235174447, -187500.02235174447, -187500.02235174447, -187500.02235174447, -187500.02235174447, 0.422, 0.156, 0.898, 192.0, 13.0, 48.0, 4.0, 224.0, 28.0, 16.0, 0.0, 0.0, 0.0, 1.7161976333853328E9, 0.0, 2024-05-20 12:33:53.385
132.0, -1688.6519418539933, -187500.02235174447, -187500.02235174447, -187500.02235174447, -187500.02235174447, -187500.02235174447, -187500.02235174447, -187500.02235174447, 0.422, 0.156, 0.898, 192.0, 0.0, 0.0, 0.0, 0.0, 0.0, 0.0, 0.0, 0.0, 0.0, 1.7161976333893733E9, 0.0, 2024-05-20 12:33:53.389
133.0, -1767.6653585035037, -187500.02235174447, -187500.02235174447, -187500.02235174447, -187500.02235174447, -187500.02235174447, -187500.02235174447, -187500.02235174447, 0.422, 0.156, 0.898, 192.0, 0.0, 0.0, 0.0, 0.0, 0.0, 0.0, 0.0, 0.0, 0.0, 1.7161976333933969E9, 0.0, 2024-05-20 12:33:53.393
134.0, -1683.891020285013, -187500.02235174447, -187500.02235174447, -187500.02235174447, -187500.02235174447, -187500.02235174447, -187500.02235174447, -187500.02235174447, 0.422, 0.156, 0.898, 192.0, 0.0, 0.0, 0.0, 0.0, 0.0, 0.0, 0.0, 0.0, 0.0, 1.7161976333974197E9, 0.0, 2024-05-20 12:33:53.397
135.0, -1620.0320863762006, -187500.02235174447, -187500.02235174447, -187500.02235174447, -187500.02235174447, -187500.02235174447, -187500.02235174447, -187500.02235174447, 0.422, 0.156, 0.898, 192.0, 0.0, 0.0, 0.0, 0.0, 0.0, 0.0, 0.0, 0.0, 0.0, 1.7161976334023917E9, 0.0, 2024-05-20 12:33:53.402
136.0, -1626.6482027349714, -187500.02235174447, -187500.02235174447, -187500.02235174447, -187500.02235174447, -187500.02235174447, -187500.02235174447, -187500.02235174447, 0.422, 0.156, 0.898, 192.0, 0.0, 0.0, 0.0, 0.0, 0.0, 0.0, 0.0, 0.0, 0.0, 1.7161976334064023E9, 0.0, 2024-05-20 12:33:53.406
137.0, -1545.5337221066623, -187500.02235174447, -187500.02235174447, -187500.02235174447, -187500.02235174447, -187500.02235174447, -187500.02235174447, -187500.02235174447, 0.422, 0.156, 0.898, 192.0, 0.0, 0.0, 0.0, 0.0, 0.0, 0.0, 0.0, 0.0, 0.0, 1.716197633410454E9, 0.0, 2024-05-20 12:33:53.410
