%OpenBCI Raw EXG Data
%Number of channels = 8
%Sample Rate = 250 Hz
%Board = OpenBCI_GUI$BoardCytonSerial
Sample Index, EXG Channel 0, EXG Channel 1, EXG Channel 2, EXG Channel 3, EXG Channel 4, EXG Channel 5, EXG Channel 6, EXG Channel 7, Accel Channel 0, Accel Channel 1, Accel Channel 2, Other, Other, Other, Other, Other, Other, Other, Analog Channel 0, Analog Channel 1, Analog Channel 2, Timestamp, Other, Timestamp (Formatted)
0.0, 0.0, 0.0, 0.0, 0.0, 0.0, 0.0, 0.0, 0.0, 0.0, 0.0, 0.0, 192.0, 0.0, 0.0, 0.0, 0.0, 0.0, 0.0, 0.0, 0.0, 0.0, 1.7151619393876743E9, 0.0, 2024-05-08 12:52:19.387
1.0, -927.1503600061369, 0.0, 0.0, 0.0, 0.0, 0.0, 0.0, 0.0, -0.008, -0.048, 0.99, 192.0, 255.0, 192.0, 254.0, 128.0, 30.0, 240.0, 0.0, 0.0, 0.0, 1.7151619398825636E9, 0.0, 2024-05-08 12:52:19.882
2.0, -1731.299070274719, 0.0, 0.0, 0.0, 0.0, 0.0, 0.0, 0.0, -0.008, -0.048, 0.99, 192.0, 0.0, 0.0, 0.0, 0.0, 0.0, 0.0, 0.0, 0.0, 0.0, 1.7151619398826337E9, 0.0, 2024-05-08 12:52:19.882
3.0, -2492.130099788916, 0.0, 0.0, 0.0, 0.0, 0.0, 0.0, 0.0, -0.008, -0.048, 0.99, 192.0, 0.0, 0.0, 0.0, 0.0, 0.0, 0.0, 0.0, 0.0, 0.0, 1.715161939882666E9, 0.0, 2024-05-08 12:52:19.882
4.0, -2365.529819194057, 0.0, 0.0, 0.0, 0.0, 0.0, 0.0, 0.0, -0.008, -0.048, 0.99, 192.0, 0.0, 0.0, 0.0, 0.0, 0.0, 0.0, 0.0, 0.0, 0.0, 1.7151619398827078E9, 0.0, 2024-05-08 12:52:19.882
5.0, -1481.9430091313136, 0.0, 0.0, 0.0, 0.0, 0.0, 0.0, 0.0, -0.008, -0.048, 0.99, 192.0, 0.0, 0.0, 0.0, 0.0, 0.0, 0.0, 0.0, 0.0, 0.0, 1.7151619398827436E9, 0.0, 2024-05-08 12:52:19.882
6.0, -1259.6996140121955, 0.0, 0.0, 0.0, 0.0, 0.0, 0.0, 0.0, -0.008, -0.048, 0.99, 192.0, 0.0, 0.0, 0.0, 0.0, 0.0, 0.0, 0.0, 0.0, 0.0, 1.7151619398827617E9, 0.0, 2024-05-08 12:52:19.882
7.0, -1940.1537704651084, 0.0, 0.0, 0.0, 0.0, 0.0, 0.0, 0.0, -0.008, -0.048, 0.99, 192.0, 0.0, 0.0, 0.0, 0.0, 0.0, 0.0, 0.0, 0.0, 0.0, 1.715161939882779E9, 0.0, 2024-05-08 12:52:19.882
8.0, -2490.788995121598, 0.0, 0.0, 0.0, 0.0, 0.0, 0.0, 0.0, -0.008, -0.056, 0.986, 192.0, 255.0, 192.0, 254.0, 64.0, 30.0, 208.0, 0.0, 0.0, 0.0, 1.7151619398828037E9, 0.0, 2024-05-08 12:52:19.882
9.0, -2182.5807908273687, 0.0, 0.0, 0.0, 0.0, 0.0, 0.0, 0.0, -0.008, -0.056, 0.986, 192.0, 0.0, 0.0, 0.0, 0.0, 0.0, 0.0, 0.0, 0.0, 0.0, 1.715161939882832E9, 0.0, 2024-05-08 12:52:19.882
10.0, -1367.4573740312308, 0.0, 0.0, 0.0, 0.0, 0.0, 0.0, 0.0, -0.008, -0.056, 0.986, 192.0, 0.0, 0.0, 0.0, 0.0, 0.0, 0.0, 0.0, 0.0, 0.0, 1.7151619398828516E9, 0.0, 2024-05-08 12:52:19.882
11.0, -1176.1934967271682, 0.0, 0.0, 0.0, 0.0, 0.0, 0.0, 0.0, -0.008, -0.056, 0.986, 192.0, 0.0, 0.0, 0.0, 0.0, 0.0, 0.0, 0.0, 0.0, 0.0, 1.715161939882871E9, 0.0, 2024-05-08 12:52:19.882
12.0, -1954.1236107496752, 0.0, 0.0, 0.0, 0.0, 0.0, 0.0, 0.0, -0.008, -0.056, 0.986, 192.0, 0.0, 0.0, 0.0, 0.0, 0.0, 0.0, 0.0, 0.0, 0.0, 1.715161939882888E9, 0.0, 2024-05-08 12:52:19.882
13.0, -2630.3532875005353, 0.0, 0.0, 0.0, 0.0, 0.0, 0.0, 0.0, -0.008, -0.056, 0.986, 192.0, 0.0, 0.0, 0.0, 0.0, 0.0, 0.0, 0.0, 0.0, 0.0, 1.7151619398829062E9, 0.0, 2024-05-08 12:52:19.882
14.0, -2361.9982435701186, 0.0, 0.0, 0.0, 0.0, 0.0, 0.0, 0.0, -0.008, -0.056, 0.986, 192.0, 0.0, 0.0, 0.0, 0.0, 0.0, 0.0, 0.0, 0.0, 0.0, 1.7151619398829236E9, 0.0, 2024-05-08 12:52:19.882
15.0, -1553.602701855028, 0.0, 0.0, 0.0, 0.0, 0.0, 0.0, 0.0, -0.008, -0.056, 0.986, 192.0, 0.0, 0.0, 0.0, 0.0, 0.0, 0.0, 0.0, 0.0, 0.0, 1.7151619398830063E9, 0.0, 2024-05-08 12:52:19.883
16.0, -1247.7637824730614, 0.0, 0.0, 0.0, 0.0, 0.0, 0.0, 0.0, -0.008, -0.056, 0.986, 192.0, 0.0, 0.0, 0.0, 0.0, 0.0, 0.0, 0.0, 0.0, 0.0, 1.715161939883024E9, 0.0, 2024-05-08 12:52:19.883
17.0, -1885.5708105052486, 0.0, 0.0, 0.0, 0.0, 0.0, 0.0, 0.0, -0.008, -0.056, 0.986, 192.0, 0.0, 0.0, 0.0, 0.0, 0.0, 0.0, 0.0, 0.0, 0.0, 1.7151619398830428E9, 0.0, 2024-05-08 12:52:19.883
18.0, -2416.245927363149, 0.0, 0.0, 0.0, 0.0, 0.0, 0.0, 0.0, -0.014, -0.052000000000000005, 0.988, 192.0, 255.0, 144.0, 254.0, 96.0, 30.0, 224.0, 0.0, 0.0, 0.0, 1.7151619398830597E9, 0.0, 2024-05-08 12:52:19.883
19.0, -2077.5052401429703, 0.0, 0.0, 0.0, 0.0, 0.0, 0.0, 0.0, -0.014, -0.052000000000000005, 0.988, 192.0, 0.0, 0.0, 0.0, 0.0, 0.0, 0.0, 0.0, 0.0, 0.0, 1.715161939883078E9, 0.0, 2024-05-08 12:52:19.883
20.0, -1301.6761900992622, 0.0, 0.0, 0.0, 0.0, 0.0, 0.0, 0.0, -0.014, -0.052000000000000005, 0.988, 192.0, 0.0, 0.0, 0.0, 0.0, 0.0, 0.0, 0.0, 0.0, 0.0, 1.7151619398830953E9, 0.0, 2024-05-08 12:52:19.883
21.0, -1063.3171872278676, 0.0, 0.0, 0.0, 0.0, 0.0, 0.0, 0.0, -0.014, -0.052000000000000005, 0.988, 192.0, 0.0, 0.0, 0.0, 0.0, 0.0, 0.0, 0.0, 0.0, 0.0, 1.7151619398831124E9, 0.0, 2024-05-08 12:52:19.883
22.0, -1692.5411453892168, 0.0, 0.0, 0.0, 0.0, 0.0, 0.0, 0.0, -0.014, -0.052000000000000005, 0.988, 192.0, 0.0, 0.0, 0.0, 0.0, 0.0, 0.0, 0.0, 0.0, 0.0, 1.7151619398831313E9, 0.0, 2024-05-08 12:52:19.883
23.0, -2193.95782875512, 0.0, 0.0, 0.0, 0.0, 0.0, 0.0, 0.0, -0.014, -0.052000000000000005, 0.988, 192.0, 0.0, 0.0, 0.0, 0.0, 0.0, 0.0, 0.0, 0.0, 0.0, 1.7151619398831537E9, 0.0, 2024-05-08 12:52:19.883
24.0, -1910.6718195285584, 0.0, 0.0, 0.0, 0.0, 0.0, 0.0, 0.0, -0.014, -0.052000000000000005, 0.988, 192.0, 0.0, 0.0, 0.0, 0.0, 0.0, 0.0, 0.0, 0.0, 0.0, 1.7151619398831706E9, 0.0, 2024-05-08 12:52:19.883
25.0, -1179.6580171177409, 0.0, 0.0, 0.0, 0.0, 0.0, 0.0, 0.0, -0.014, -0.052000000000000005, 0.988, 192.0, 0.0, 0.0, 0.0, 0.0, 0.0, 0.0, 0.0, 0.0, 0.0, 1.7151619398831875E9, 0.0, 2024-05-08 12:52:19.883
26.0, -947.0434125713602, 0.0, 0.0, 0.0, 0.0, 0.0, 0.0, 0.0, -0.014, -0.052000000000000005, 0.988, 192.0, 0.0, 0.0, 0.0, 0.0, 0.0, 0.0, 0.0, 0.0, 0.0, 1.7151619398832047E9, 0.0, 2024-05-08 12:52:19.883
27.0, -1538.157646436411, 0.0, 0.0, 0.0, 0.0, 0.0, 0.0, 0.0, -0.014, -0.052000000000000005, 0.988, 192.0, 0.0, 0.0, 0.0, 0.0, 0.0, 0.0, 0.0, 0.0, 0.0, 1.715161939883222E9, 0.0, 2024-05-08 12:52:19.883
28.0, -2027.5043877964483, 0.0, 0.0, 0.0, 0.0, 0.0, 0.0, 0.0, -0.01, -0.06, 0.986, 192.0, 255.0, 176.0, 254.0, 32.0, 30.0, 208.0, 0.0, 0.0, 0.0, 1.7151619398832393E9, 0.0, 2024-05-08 12:52:19.883
29.0, -1738.0045936113113, 0.0, 0.0, 0.0, 0.0, 0.0, 0.0, 0.0, -0.01, -0.06, 0.986, 192.0, 0.0, 0.0, 0.0, 0.0, 0.0, 0.0, 0.0, 0.0, 0.0, 1.7151619398832593E9, 0.0, 2024-05-08 12:52:19.883
30.0, -959.5603894663323, 0.0, 0.0, 0.0, 0.0, 0.0, 0.0, 0.0, -0.01, -0.06, 0.986, 192.0, 0.0, 0.0, 0.0, 0.0, 0.0, 0.0, 0.0, 0.0, 0.0, 1.7151619398832765E9, 0.0, 2024-05-08 12:52:19.883
31.0, -753.3431951216693, 0.0, 0.0, 0.0, 0.0, 0.0, 0.0, 0.0, -0.01, -0.06, 0.986, 192.0, 0.0, 0.0, 0.0, 0.0, 0.0, 0.0, 0.0, 0.0, 0.0, 1.7151619398832934E9, 0.0, 2024-05-08 12:52:19.883
32.0, -1433.4397236632972, 0.0, 0.0, 0.0, 0.0, 0.0, 0.0, 0.0, -0.01, -0.06, 0.986, 192.0, 0.0, 0.0, 0.0, 0.0, 0.0, 0.0, 0.0, 0.0, 0.0, 1.7151619398833206E9, 0.0, 2024-05-08 12:52:19.883
33.0, -2005.3985125301497, 0.0, 0.0, 0.0, 0.0, 0.0, 0.0, 0.0, -0.01, -0.06, 0.986, 192.0, 0.0, 0.0, 0.0, 0.0, 0.0, 0.0, 0.0, 0.0, 0.0, 1.7151619398833377E9, 0.0, 2024-05-08 12:52:19.883
34.0, -1775.3320068516741, 0.0, 0.0, 0.0, 0.0, 0.0, 0.0, 0.0, -0.01, -0.06, 0.986, 192.0, 0.0, 0.0, 0.0, 0.0, 0.0, 0.0, 0.0, 0.0, 0.0, 1.715161939883355E9, 0.0, 2024-05-08 12:52:19.883
35.0, -1047.2015794755912, 0.0, 0.0, 0.0, 0.0, 0.0, 0.0, 0.0, -0.01, -0.06, 0.986, 192.0, 0.0, 0.0, 0.0, 0.0, 0.0, 0.0, 0.0, 0.0, 0.0, 1.715161939883372E9, 0.0, 2024-05-08 12:52:19.883
36.0, -845.0971061107048, 0.0, 0.0, 0.0, 0.0, 0.0, 0.0, 0.0, -0.01, -0.06, 0.986, 192.0, 0.0, 0.0, 0.0, 0.0, 0.0, 0.0, 0.0, 0.0, 0.0, 1.715161939883391E9, 0.0, 2024-05-08 12:52:19.883
37.0, -1517.2587653706987, 0.0, 0.0, 0.0, 0.0, 0.0, 0.0, 0.0, -0.01, -0.06, 0.986, 192.0, 0.0, 0.0, 0.0, 0.0, 0.0, 0.0, 0.0, 0.0, 0.0, 1.7151619398834083E9, 0.0, 2024-05-08 12:52:19.883
38.0, -2010.3829515436832, 0.0, 0.0, 0.0, 0.0, 0.0, 0.0, 0.0, -0.01, -0.062, 0.988, 192.0, 255.0, 176.0, 254.0, 16.0, 30.0, 224.0, 0.0, 0.0, 0.0, 1.7151619398834252E9, 0.0, 2024-05-08 12:52:19.883
39.0, -1568.019577028701, 0.0, 0.0, 0.0, 0.0, 0.0, 0.0, 0.0, -0.01, -0.062, 0.988, 192.0, 0.0, 0.0, 0.0, 0.0, 0.0, 0.0, 0.0, 0.0, 0.0, 1.715161939883443E9, 0.0, 2024-05-08 12:52:19.883
40.0, -620.0597429346732, 0.0, 0.0, 0.0, 0.0, 0.0, 0.0, 0.0, -0.01, -0.062, 0.988, 192.0, 0.0, 0.0, 0.0, 0.0, 0.0, 0.0, 0.0, 0.0, 0.0, 1.7151619398834603E9, 0.0, 2024-05-08 12:52:19.883
41.0, -263.83999155044455, 0.0, 0.0, 0.0, 0.0, 0.0, 0.0, 0.0, -0.01, -0.062, 0.988, 192.0, 0.0, 0.0, 0.0, 0.0, 0.0, 0.0, 0.0, 0.0, 0.0, 1.7151619398834777E9, 0.0, 2024-05-08 12:52:19.883
42.0, -742.1002676606498, 0.0, 0.0, 0.0, 0.0, 0.0, 0.0, 0.0, -0.01, -0.062, 0.988, 192.0, 0.0, 0.0, 0.0, 0.0, 0.0, 0.0, 0.0, 0.0, 0.0, 1.7151619398834963E9, 0.0, 2024-05-08 12:52:19.883
43.0, -1190.7891858564838, 0.0, 0.0, 0.0, 0.0, 0.0, 0.0, 0.0, -0.01, -0.062, 0.988, 192.0, 0.0, 0.0, 0.0, 0.0, 0.0, 0.0, 0.0, 0.0, 0.0, 1.7151619398835132E9, 0.0, 2024-05-08 12:52:19.883
44.0, -968.5904942262763, 0.0, 0.0, 0.0, 0.0, 0.0, 0.0, 0.0, -0.01, -0.062, 0.988, 192.0, 0.0, 0.0, 0.0, 0.0, 0.0, 0.0, 0.0, 0.0, 0.0, 1.7151619398835325E9, 0.0, 2024-05-08 12:52:19.883
45.0, -234.29098538052864, 0.0, 0.0, 0.0, 0.0, 0.0, 0.0, 0.0, -0.01, -0.062, 0.988, 192.0, 0.0, 0.0, 0.0, 0.0, 0.0, 0.0, 0.0, 0.0, 0.0, 1.7151619398835497E9, 0.0, 2024-05-08 12:52:19.883
46.0, 102.28158262748512, 0.0, 0.0, 0.0, 0.0, 0.0, 0.0, 0.0, -0.01, -0.062, 0.988, 192.0, 0.0, 0.0, 0.0, 0.0, 0.0, 0.0, 0.0, 0.0, 0.0, 1.7151619398835669E9, 0.0, 2024-05-08 12:52:19.883
47.0, -377.02922547211955, 0.0, 0.0, 0.0, 0.0, 0.0, 0.0, 0.0, -0.01, -0.062, 0.988, 192.0, 0.0, 0.0, 0.0, 0.0, 0.0, 0.0, 0.0, 0.0, 0.0, 1.7151619398835838E9, 0.0, 2024-05-08 12:52:19.883
48.0, -872.5450483018218, 0.0, 0.0, 0.0, 0.0, 0.0, 0.0, 0.0, -0.004, -0.06, 0.984, 192.0, 255.0, 224.0, 254.0, 32.0, 30.0, 192.0, 0.0, 0.0, 0.0, 1.7151619398836012E9, 0.0, 2024-05-08 12:52:19.883
49.0, -588.454376274869, 0.0, 0.0, 0.0, 0.0, 0.0, 0.0, 0.0, -0.004, -0.06, 0.984, 192.0, 0.0, 0.0, 0.0, 0.0, 0.0, 0.0, 0.0, 0.0, 0.0, 1.7151619398836193E9, 0.0, 2024-05-08 12:52:19.883
50.0, 133.50696963154908, 0.0, 0.0, 0.0, 0.0, 0.0, 0.0, 0.0, -0.004, -0.06, 0.984, 192.0, 0.0, 0.0, 0.0, 0.0, 0.0, 0.0, 0.0, 0.0, 0.0, 1.7151619398836453E9, 0.0, 2024-05-08 12:52:19.883
51.0, 340.88645468788803, 0.0, 0.0, 0.0, 0.0, 0.0, 0.0, 0.0, -0.004, -0.06, 0.984, 192.0, 0.0, 0.0, 0.0, 0.0, 0.0, 0.0, 0.0, 0.0, 0.0, 1.7151619398836625E9, 0.0, 2024-05-08 12:52:19.883
52.0, -407.22643223123936, 0.0, 0.0, 0.0, 0.0, 0.0, 0.0, 0.0, -0.004, -0.06, 0.984, 192.0, 0.0, 0.0, 0.0, 0.0, 0.0, 0.0, 0.0, 0.0, 0.0, 1.7151619398836796E9, 0.0, 2024-05-08 12:52:19.883
53.0, -1105.0255423814706, 0.0, 0.0, 0.0, 0.0, 0.0, 0.0, 0.0, -0.004, -0.06, 0.984, 192.0, 0.0, 0.0, 0.0, 0.0, 0.0, 0.0, 0.0, 0.0, 0.0, 1.7151619398836968E9, 0.0, 2024-05-08 12:52:19.883
54.0, -1001.0452271753821, 0.0, 0.0, 0.0, 0.0, 0.0, 0.0, 0.0, -0.004, -0.06, 0.984, 192.0, 0.0, 0.0, 0.0, 0.0, 0.0, 0.0, 0.0, 0.0, 0.0, 1.7151619398837156E9, 0.0, 2024-05-08 12:52:19.883
55.0, -403.80661532957737, 0.0, 0.0, 0.0, 0.0, 0.0, 0.0, 0.0, -0.004, -0.06, 0.984, 192.0, 0.0, 0.0, 0.0, 0.0, 0.0, 0.0, 0.0, 0.0, 0.0, 1.7151619398837328E9, 0.0, 2024-05-08 12:52:19.883
56.0, -72.93374215766694, 0.0, 0.0, 0.0, 0.0, 0.0, 0.0, 0.0, -0.004, -0.06, 0.984, 192.0, 0.0, 0.0, 0.0, 0.0, 0.0, 0.0, 0.0, 0.0, 0.0, 1.7151619398837497E9, 0.0, 2024-05-08 12:52:19.883
57.0, -374.7940510265888, 0.0, 0.0, 0.0, 0.0, 0.0, 0.0, 0.0, -0.004, -0.06, 0.984, 192.0, 0.0, 0.0, 0.0, 0.0, 0.0, 0.0, 0.0, 0.0, 0.0, 1.715161939883767E9, 0.0, 2024-05-08 12:52:19.883
58.0, -653.6544148509997, 0.0, 0.0, 0.0, 0.0, 0.0, 0.0, 0.0, -0.002, -0.058, 0.988, 192.0, 255.0, 240.0, 254.0, 48.0, 30.0, 224.0, 0.0, 0.0, 0.0, 1.715161939883784E9, 0.0, 2024-05-08 12:52:19.883
59.0, -661.7010428549103, 0.0, 0.0, 0.0, 0.0, 0.0, 0.0, 0.0, -0.002, -0.058, 0.988, 192.0, 0.0, 0.0, 0.0, 0.0, 0.0, 0.0, 0.0, 0.0, 0.0, 1.7151619398838022E9, 0.0, 2024-05-08 12:52:19.883
60.0, -8.761883826480368, 0.0, 0.0, 0.0, 0.0, 0.0, 0.0, 0.0, -0.002, -0.058, 0.988, 192.0, 0.0, 0.0, 0.0, 0.0, 0.0, 0.0, 0.0, 0.0, 0.0, 1.7151619398838196E9, 0.0, 2024-05-08 12:52:19.883
61.0, 59.65680595121455, 0.0, 0.0, 0.0, 0.0, 0.0, 0.0, 0.0, -0.002, -0.058, 0.988, 192.0, 0.0, 0.0, 0.0, 0.0, 0.0, 0.0, 0.0, 0.0, 0.0, 1.7151619398838487E9, 0.0, 2024-05-08 12:52:19.883
62.0, -879.6752547830647, 0.0, 0.0, 0.0, 0.0, 0.0, 0.0, 0.0, -0.002, -0.058, 0.988, 192.0, 0.0, 0.0, 0.0, 0.0, 0.0, 0.0, 0.0, 0.0, 0.0, 1.7151619398838716E9, 0.0, 2024-05-08 12:52:19.883
63.0, -1791.4029111150398, 0.0, 0.0, 0.0, 0.0, 0.0, 0.0, 0.0, -0.002, -0.058, 0.988, 192.0, 0.0, 0.0, 0.0, 0.0, 0.0, 0.0, 0.0, 0.0, 0.0, 1.715161939883894E9, 0.0, 2024-05-08 12:52:19.883
64.0, -1779.8694109761013, 0.0, 0.0, 0.0, 0.0, 0.0, 0.0, 0.0, -0.002, -0.058, 0.988, 192.0, 0.0, 0.0, 0.0, 0.0, 0.0, 0.0, 0.0, 0.0, 0.0, 1.7151619398839238E9, 0.0, 2024-05-08 12:52:19.883
65.0, -1275.2340764086339, 0.0, 0.0, 0.0, 0.0, 0.0, 0.0, 0.0, -0.002, -0.058, 0.988, 192.0, 0.0, 0.0, 0.0, 0.0, 0.0, 0.0, 0.0, 0.0, 0.0, 1.7151619398839653E9, 0.0, 2024-05-08 12:52:19.883
66.0, -1352.83933315746, 0.0, 0.0, 0.0, 0.0, 0.0, 0.0, 0.0, -0.002, -0.058, 0.988, 192.0, 0.0, 0.0, 0.0, 0.0, 0.0, 0.0, 0.0, 0.0, 0.0, 1.7151619398839855E9, 0.0, 2024-05-08 12:52:19.883
67.0, -2514.1465680773936, 0.0, 0.0, 0.0, 0.0, 0.0, 0.0, 0.0, -0.002, -0.058, 0.988, 192.0, 0.0, 0.0, 0.0, 0.0, 0.0, 0.0, 0.0, 0.0, 0.0, 1.7151619398840456E9, 0.0, 2024-05-08 12:52:19.884
68.0, -3710.1660621364194, 0.0, 0.0, 0.0, 0.0, 0.0, 0.0, 0.0, -0.01, -0.054, 0.99, 192.0, 255.0, 176.0, 254.0, 80.0, 30.0, 240.0, 0.0, 0.0, 0.0, 1.7151619398840764E9, 0.0, 2024-05-08 12:52:19.884
69.0, -3818.817891933667, 0.0, 0.0, 0.0, 0.0, 0.0, 0.0, 0.0, -0.01, -0.054, 0.99, 192.0, 0.0, 0.0, 0.0, 0.0, 0.0, 0.0, 0.0, 0.0, 0.0, 1.7151619398841002E9, 0.0, 2024-05-08 12:52:19.884
70.0, -3190.398596572709, 0.0, 0.0, 0.0, 0.0, 0.0, 0.0, 0.0, -0.01, -0.054, 0.99, 192.0, 0.0, 0.0, 0.0, 0.0, 0.0, 0.0, 0.0, 0.0, 0.0, 1.7151619398841257E9, 0.0, 2024-05-08 12:52:19.884
71.0, -3241.494684397541, 0.0, 0.0, 0.0, 0.0, 0.0, 0.0, 0.0, -0.01, -0.054, 0.99, 192.0, 0.0, 0.0, 0.0, 0.0, 0.0, 0.0, 0.0, 0.0, 0.0, 1.715161939884153E9, 0.0, 2024-05-08 12:52:19.884
72.0, -4518.114568962404, 0.0, 0.0, 0.0, 0.0, 0.0, 0.0, 0.0, -0.01, -0.054, 0.99, 192.0, 0.0, 0.0, 0.0, 0.0, 0.0, 0.0, 0.0, 0.0, 0.0, 1.7151619398841715E9, 0.0, 2024-05-08 12:52:19.884
73.0, -6425.075998911381, 0.0, 0.0, 0.0, 0.0, 0.0, 0.0, 0.0, -0.01, -0.054, 0.99, 192.0, 0.0, 0.0, 0.0, 0.0, 0.0, 0.0, 0.0, 0.0, 0.0, 1.7151619398841896E9, 0.0, 2024-05-08 12:52:19.884
74.0, -6942.250662118276, 0.0, 0.0, 0.0, 0.0, 0.0, 0.0, 0.0, -0.01, -0.054, 0.99, 192.0, 0.0, 0.0, 0.0, 0.0, 0.0, 0.0, 0.0, 0.0, 0.0, 1.715161939884208E9, 0.0, 2024-05-08 12:52:19.884
75.0, -6320.000448226982, 0.0, 0.0, 0.0, 0.0, 0.0, 0.0, 0.0, -0.01, -0.054, 0.99, 192.0, 0.0, 0.0, 0.0, 0.0, 0.0, 0.0, 0.0, 0.0, 0.0, 1.7151619398842287E9, 0.0, 2024-05-08 12:52:19.884
76.0, -6777.764174671671, 0.0, 0.0, 0.0, 0.0, 0.0, 0.0, 0.0, -0.01, -0.054, 0.99, 192.0, 0.0, 0.0, 0.0, 0.0, 0.0, 0.0, 0.0, 0.0, 0.0, 1.715161939884246E9, 0.0, 2024-05-08 12:52:19.884
77.0, -7891.730414835265, 0.0, 0.0, 0.0, 0.0, 0.0, 0.0, 0.0, -0.01, -0.054, 0.99, 192.0, 0.0, 0.0, 0.0, 0.0, 0.0, 0.0, 0.0, 0.0, 0.0, 1.7151619398842654E9, 0.0, 2024-05-08 12:52:19.884
78.0, -8930.795959329123, 0.0, 0.0, 0.0, 0.0, 0.0, 0.0, 0.0, -0.004, -0.046, 0.99, 192.0, 255.0, 224.0, 254.0, 144.0, 30.0, 240.0, 0.0, 0.0, 0.0, 1.7151619398842833E9, 0.0, 2024-05-08 12:52:19.884
79.0, -9555.884844766242, 0.0, 0.0, 0.0, 0.0, 0.0, 0.0, 0.0, -0.004, -0.046, 0.99, 192.0, 0.0, 0.0, 0.0, 0.0, 0.0, 0.0, 0.0, 0.0, 0.0, 1.7151619398843021E9, 0.0, 2024-05-08 12:52:19.884
80.0, -9747.528701726043, 0.0, 0.0, 0.0, 0.0, 0.0, 0.0, 0.0, -0.004, -0.046, 0.99, 192.0, 0.0, 0.0, 0.0, 0.0, 0.0, 0.0, 0.0, 0.0, 0.0, 1.7151619398843195E9, 0.0, 2024-05-08 12:52:19.884
81.0, -10160.588939260118, 0.0, 0.0, 0.0, 0.0, 0.0, 0.0, 0.0, -0.004, -0.046, 0.99, 192.0, 0.0, 0.0, 0.0, 0.0, 0.0, 0.0, 0.0, 0.0, 0.0, 1.7151619398843367E9, 0.0, 2024-05-08 12:52:19.884
82.0, -10823.47462457116, 0.0, 0.0, 0.0, 0.0, 0.0, 0.0, 0.0, -0.004, -0.046, 0.99, 192.0, 0.0, 0.0, 0.0, 0.0, 0.0, 0.0, 0.0, 0.0, 0.0, 1.7151619398843544E9, 0.0, 2024-05-08 12:52:19.884
83.0, -11236.93719350543, 0.0, 0.0, 0.0, 0.0, 0.0, 0.0, 0.0, -0.004, -0.046, 0.99, 192.0, 0.0, 0.0, 0.0, 0.0, 0.0, 0.0, 0.0, 0.0, 0.0, 1.7151619398843727E9, 0.0, 2024-05-08 12:52:19.884
84.0, -11460.633452014143, 0.0, 0.0, 0.0, 0.0, 0.0, 0.0, 0.0, -0.004, -0.046, 0.99, 192.0, 0.0, 0.0, 0.0, 0.0, 0.0, 0.0, 0.0, 0.0, 0.0, 1.7151619398843904E9, 0.0, 2024-05-08 12:52:19.884
85.0, -11722.12651039678, 0.0, 0.0, 0.0, 0.0, 0.0, 0.0, 0.0, -0.004, -0.046, 0.99, 192.0, 0.0, 0.0, 0.0, 0.0, 0.0, 0.0, 0.0, 0.0, 0.0, 1.7151619398844483E9, 0.0, 2024-05-08 12:52:19.884
86.0, -12269.006641984779, 0.0, 0.0, 0.0, 0.0, 0.0, 0.0, 0.0, -0.004, -0.046, 0.99, 192.0, 0.0, 0.0, 0.0, 0.0, 0.0, 0.0, 0.0, 0.0, 0.0, 1.7151619398844683E9, 0.0, 2024-05-08 12:52:19.884
87.0, -13307.647503333987, 0.0, 0.0, 0.0, 0.0, 0.0, 0.0, 0.0, -0.004, -0.046, 0.99, 192.0, 0.0, 0.0, 0.0, 0.0, 0.0, 0.0, 0.0, 0.0, 0.0, 1.715161939884493E9, 0.0, 2024-05-08 12:52:19.884
88.0, -13060.884244547397, 0.0, 0.0, 0.0, 0.0, 0.0, 0.0, 0.0, -0.006, -0.052000000000000005, 0.992, 192.0, 255.0, 208.0, 254.0, 96.0, 31.0, 0.0, 0.0, 0.0, 0.0, 1.7151619398845112E9, 0.0, 2024-05-08 12:52:19.884
89.0, -12386.77798351979, 0.0, 0.0, 0.0, 0.0, 0.0, 0.0, 0.0, -0.006, -0.052000000000000005, 0.992, 192.0, 0.0, 0.0, 0.0, 0.0, 0.0, 0.0, 0.0, 0.0, 0.0, 1.71516193988453E9, 0.0, 2024-05-08 12:52:19.884
90.0, -11915.424396446277, 0.0, 0.0, 0.0, 0.0, 0.0, 0.0, 0.0, -0.006, -0.052000000000000005, 0.992, 192.0, 0.0, 0.0, 0.0, 0.0, 0.0, 0.0, 0.0, 0.0, 0.0, 1.7151619398845477E9, 0.0, 2024-05-08 12:52:19.884
91.0, -11454.352611822202, 0.0, 0.0, 0.0, 0.0, 0.0, 0.0, 0.0, -0.006, -0.052000000000000005, 0.992, 192.0, 0.0, 0.0, 0.0, 0.0, 0.0, 0.0, 0.0, 0.0, 0.0, 1.7151619398845656E9, 0.0, 2024-05-08 12:52:19.884
92.0, -11970.633205250884, 0.0, 0.0, 0.0, 0.0, 0.0, 0.0, 0.0, -0.006, -0.052000000000000005, 0.992, 192.0, 0.0, 0.0, 0.0, 0.0, 0.0, 0.0, 0.0, 0.0, 0.0, 1.715161939884585E9, 0.0, 2024-05-08 12:52:19.884
93.0, -12738.125054612763, 0.0, 0.0, 0.0, 0.0, 0.0, 0.0, 0.0, -0.006, -0.052000000000000005, 0.992, 192.0, 0.0, 0.0, 0.0, 0.0, 0.0, 0.0, 0.0, 0.0, 0.0, 1.7151619398846023E9, 0.0, 2024-05-08 12:52:19.884
94.0, -12581.036994580865, 0.0, 0.0, 0.0, 0.0, 0.0, 0.0, 0.0, -0.006, -0.052000000000000005, 0.992, 192.0, 0.0, 0.0, 0.0, 0.0, 0.0, 0.0, 0.0, 0.0, 0.0, 1.71516193988462E9, 0.0, 2024-05-08 12:52:19.884
95.0, -11780.352804702856, 0.0, 0.0, 0.0, 0.0, 0.0, 0.0, 0.0, -0.006, -0.052000000000000005, 0.992, 192.0, 0.0, 0.0, 0.0, 0.0, 0.0, 0.0, 0.0, 0.0, 0.0, 1.715161939884638E9, 0.0, 2024-05-08 12:52:19.884
96.0, -10742.494254409583, 0.0, 0.0, 0.0, 0.0, 0.0, 0.0, 0.0, -0.006, -0.052000000000000005, 0.992, 192.0, 0.0, 0.0, 0.0, 0.0, 0.0, 0.0, 0.0, 0.0, 0.0, 1.7151619398846583E9, 0.0, 2024-05-08 12:52:19.884
97.0, -11120.81988106011, 0.0, 0.0, 0.0, 0.0, 0.0, 0.0, 0.0, -0.006, -0.052000000000000005, 0.992, 192.0, 0.0, 0.0, 0.0, 0.0, 0.0, 0.0, 0.0, 0.0, 0.0, 1.715161939884677E9, 0.0, 2024-05-08 12:52:19.884
98.0, -12482.130525366132, 0.0, 0.0, 0.0, 0.0, 0.0, 0.0, 0.0, -0.006, -0.054, 0.986, 192.0, 255.0, 208.0, 254.0, 80.0, 30.0, 208.0, 0.0, 0.0, 0.0, 1.7151619398846955E9, 0.0, 2024-05-08 12:52:19.884
99.0, -13262.496979534268, 0.0, 0.0, 0.0, 0.0, 0.0, 0.0, 0.0, -0.006, -0.054, 0.986, 192.0, 0.0, 0.0, 0.0, 0.0, 0.0, 0.0, 0.0, 0.0, 0.0, 1.715161939884714E9, 0.0, 2024-05-08 12:52:19.884
100.0, -12867.094620119886, 0.0, 0.0, 0.0, 0.0, 0.0, 0.0, 0.0, -0.006, -0.054, 0.986, 192.0, 0.0, 0.0, 0.0, 0.0, 0.0, 0.0, 0.0, 0.0, 0.0, 1.7151619398847318E9, 0.0, 2024-05-08 12:52:19.884
101.0, -12510.137261168631, 0.0, 0.0, 0.0, 0.0, 0.0, 0.0, 0.0, -0.006, -0.054, 0.986, 192.0, 0.0, 0.0, 0.0, 0.0, 0.0, 0.0, 0.0, 0.0, 0.0, 1.7151619398847497E9, 0.0, 2024-05-08 12:52:19.884
102.0, -12931.914679040276, 0.0, 0.0, 0.0, 0.0, 0.0, 0.0, 0.0, -0.006, -0.054, 0.986, 192.0, 0.0, 0.0, 0.0, 0.0, 0.0, 0.0, 0.0, 0.0, 0.0, 1.7151619398850124E9, 0.0, 2024-05-08 12:52:19.885
103.0, -13597.348463219221, 0.0, 0.0, 0.0, 0.0, 0.0, 0.0, 0.0, -0.006, -0.054, 0.986, 192.0, 0.0, 0.0, 0.0, 0.0, 0.0, 0.0, 0.0, 0.0, 0.0, 1.715161939885039E9, 0.0, 2024-05-08 12:52:19.885
104.0, -13780.476305541553, 0.0, 0.0, 0.0, 0.0, 0.0, 0.0, 0.0, -0.006, -0.054, 0.986, 192.0, 0.0, 0.0, 0.0, 0.0, 0.0, 0.0, 0.0, 0.0, 0.0, 1.7151619398850644E9, 0.0, 2024-05-08 12:52:19.885
105.0, -13502.442956261988, 0.0, 0.0, 0.0, 0.0, 0.0, 0.0, 0.0, -0.006, -0.054, 0.986, 192.0, 0.0, 0.0, 0.0, 0.0, 0.0, 0.0, 0.0, 0.0, 0.0, 1.7151619398850868E9, 0.0, 2024-05-08 12:52:19.885
106.0, -13427.89988850354, 0.0, 0.0, 0.0, 0.0, 0.0, 0.0, 0.0, -0.006, -0.054, 0.986, 192.0, 0.0, 0.0, 0.0, 0.0, 0.0, 0.0, 0.0, 0.0, 0.0, 1.715161939885112E9, 0.0, 2024-05-08 12:52:19.885
107.0, -13912.932743183703, 0.0, 0.0, 0.0, 0.0, 0.0, 0.0, 0.0, -0.006, -0.054, 0.986, 192.0, 0.0, 0.0, 0.0, 0.0, 0.0, 0.0, 0.0, 0.0, 0.0, 1.7151619398851354E9, 0.0, 2024-05-08 12:52:19.885
108.0, -14349.17173971793, 0.0, 0.0, 0.0, 0.0, 0.0, 0.0, 0.0, -0.006, -0.054, 0.992, 192.0, 255.0, 208.0, 254.0, 80.0, 31.0, 0.0, 0.0, 0.0, 0.0, 1.7151619398851628E9, 0.0, 2024-05-08 12:52:19.885
109.0, -14118.50173693916, 0.0, 0.0, 0.0, 0.0, 0.0, 0.0, 0.0, -0.006, -0.054, 0.992, 192.0, 0.0, 0.0, 0.0, 0.0, 0.0, 0.0, 0.0, 0.0, 0.0, 1.7151619398851867E9, 0.0, 2024-05-08 12:52:19.885
110.0, -13369.159504074993, 0.0, 0.0, 0.0, 0.0, 0.0, 0.0, 0.0, -0.006, -0.054, 0.992, 192.0, 0.0, 0.0, 0.0, 0.0, 0.0, 0.0, 0.0, 0.0, 0.0, 1.7151619398852086E9, 0.0, 2024-05-08 12:52:19.885
111.0, -12968.348022502425, 0.0, 0.0, 0.0, 0.0, 0.0, 0.0, 0.0, -0.006, -0.054, 0.992, 192.0, 0.0, 0.0, 0.0, 0.0, 0.0, 0.0, 0.0, 0.0, 0.0, 1.7151619398852344E9, 0.0, 2024-05-08 12:52:19.885
112.0, -13358.005983591795, 0.0, 0.0, 0.0, 0.0, 0.0, 0.0, 0.0, -0.006, -0.054, 0.992, 192.0, 0.0, 0.0, 0.0, 0.0, 0.0, 0.0, 0.0, 0.0, 0.0, 1.715161939885258E9, 0.0, 2024-05-08 12:52:19.885
113.0, -13790.333424846343, 0.0, 0.0, 0.0, 0.0, 0.0, 0.0, 0.0, -0.006, -0.054, 0.992, 192.0, 0.0, 0.0, 0.0, 0.0, 0.0, 0.0, 0.0, 0.0, 0.0, 1.7151619398852808E9, 0.0, 2024-05-08 12:52:19.885
114.0, -13649.360972566721, 0.0, 0.0, 0.0, 0.0, 0.0, 0.0, 0.0, -0.006, -0.054, 0.992, 192.0, 0.0, 0.0, 0.0, 0.0, 0.0, 0.0, 0.0, 0.0, 0.0, 1.7151619398853061E9, 0.0, 2024-05-08 12:52:19.885
115.0, -12999.305188573026, 0.0, 0.0, 0.0, 0.0, 0.0, 0.0, 0.0, -0.006, -0.054, 0.992, 192.0, 0.0, 0.0, 0.0, 0.0, 0.0, 0.0, 0.0, 0.0, 0.0, 1.715161939885332E9, 0.0, 2024-05-08 12:52:19.885
116.0, -12550.124531999176, 0.0, 0.0, 0.0, 0.0, 0.0, 0.0, 0.0, -0.006, -0.054, 0.992, 192.0, 0.0, 0.0, 0.0, 0.0, 0.0, 0.0, 0.0, 0.0, 0.0, 1.7151619398853548E9, 0.0, 2024-05-08 12:52:19.885
117.0, -12752.541929786436, 0.0, 0.0, 0.0, 0.0, 0.0, 0.0, 0.0, -0.006, -0.054, 0.992, 192.0, 0.0, 0.0, 0.0, 0.0, 0.0, 0.0, 0.0, 0.0, 0.0, 1.7151619398853784E9, 0.0, 2024-05-08 12:52:19.885
118.0, -13022.036912684074, 0.0, 0.0, 0.0, 0.0, 0.0, 0.0, 0.0, -0.008, -0.052000000000000005, 0.988, 192.0, 255.0, 192.0, 254.0, 96.0, 30.0, 224.0, 0.0, 0.0, 0.0, 1.7151619398853967E9, 0.0, 2024-05-08 12:52:19.885
119.0, -12559.109933270209, 0.0, 0.0, 0.0, 0.0, 0.0, 0.0, 0.0, -0.008, -0.052000000000000005, 0.988, 192.0, 0.0, 0.0, 0.0, 0.0, 0.0, 0.0, 0.0, 0.0, 0.0, 1.7151619398854735E9, 0.0, 2024-05-08 12:52:19.885
120.0, -11491.300045406824, 0.0, 0.0, 0.0, 0.0, 0.0, 0.0, 0.0, -0.008, -0.052000000000000005, 0.988, 192.0, 0.0, 0.0, 0.0, 0.0, 0.0, 0.0, 0.0, 0.0, 0.0, 1.7151619398854918E9, 0.0, 2024-05-08 12:52:19.885
121.0, -10888.786421869567, 0.0, 0.0, 0.0, 0.0, 0.0, 0.0, 0.0, -0.008, -0.052000000000000005, 0.988, 192.0, 0.0, 0.0, 0.0, 0.0, 0.0, 0.0, 0.0, 0.0, 0.0, 1.7151619398855093E9, 0.0, 2024-05-08 12:52:19.885
122.0, -10827.632049039847, 0.0, 0.0, 0.0, 0.0, 0.0, 0.0, 0.0, -0.008, -0.052000000000000005, 0.988, 192.0, 0.0, 0.0, 0.0, 0.0, 0.0, 0.0, 0.0, 0.0, 0.0, 1.7151619403627937E9, 0.0, 2024-05-08 12:52:20.362
123.0, -10824.033418182544, 0.0, 0.0, 0.0, 0.0, 0.0, 0.0, 0.0, -0.008, -0.052000000000000005, 0.988, 192.0, 0.0, 0.0, 0.0, 0.0, 0.0, 0.0, 0.0, 0.0, 0.0, 1.7151619403628857E9, 0.0, 2024-05-08 12:52:20.362
124.0, -10387.794421648316, 0.0, 0.0, 0.0, 0.0, 0.0, 0.0, 0.0, -0.008, -0.052000000000000005, 0.988, 192.0, 0.0, 0.0, 0.0, 0.0, 0.0, 0.0, 0.0, 0.0, 0.0, 1.7151619403629212E9, 0.0, 2024-05-08 12:52:20.362
125.0, -9632.640735225767, 0.0, 0.0, 0.0, 0.0, 0.0, 0.0, 0.0, -0.008, -0.052000000000000005, 0.988, 192.0, 0.0, 0.0, 0.0, 0.0, 0.0, 0.0, 0.0, 0.0, 0.0, 1.7151619403629537E9, 0.0, 2024-05-08 12:52:20.362
126.0, -9210.68450339848, 0.0, 0.0, 0.0, 0.0, 0.0, 0.0, 0.0, -0.008, -0.052000000000000005, 0.988, 192.0, 0.0, 0.0, 0.0, 0.0, 0.0, 0.0, 0.0, 0.0, 0.0, 1.715161940363046E9, 0.0, 2024-05-08 12:52:20.363
127.0, -9371.594711732234, 0.0, 0.0, 0.0, 0.0, 0.0, 0.0, 0.0, -0.008, -0.052000000000000005, 0.988, 192.0, 0.0, 0.0, 0.0, 0.0, 0.0, 0.0, 0.0, 0.0, 0.0, 1.7151619403630757E9, 0.0, 2024-05-08 12:52:20.363
128.0, -9509.326161065837, 0.0, 0.0, 0.0, 0.0, 0.0, 0.0, 0.0, -0.008, -0.054, 0.986, 192.0, 255.0, 192.0, 254.0, 80.0, 30.0, 208.0, 0.0, 0.0, 0.0, 1.715161940363098E9, 0.0, 2024-05-08 12:52:20.363
129.0, -9167.255063921817, 0.0, 0.0, 0.0, 0.0, 0.0, 0.0, 0.0, -0.008, -0.054, 0.986, 192.0, 0.0, 0.0, 0.0, 0.0, 0.0, 0.0, 0.0, 0.0, 0.0, 1.7151619403631232E9, 0.0, 2024-05-08 12:52:20.363
130.0, -8351.483446536475, 0.0, 0.0, 0.0, 0.0, 0.0, 0.0, 0.0, -0.008, -0.054, 0.986, 192.0, 0.0, 0.0, 0.0, 0.0, 0.0, 0.0, 0.0, 0.0, 0.0, 1.7151619403631449E9, 0.0, 2024-05-08 12:52:20.363
131.0, -7674.672624429778, 0.0, 0.0, 0.0, 0.0, 0.0, 0.0, 0.0, -0.008, -0.054, 0.986, 192.0, 0.0, 0.0, 0.0, 0.0, 0.0, 0.0, 0.0, 0.0, 0.0, 1.7151619403631687E9, 0.0, 2024-05-08 12:52:20.363
132.0, -7594.429861835225, 0.0, 0.0, 0.0, 0.0, 0.0, 0.0, 0.0, -0.008, -0.054, 0.986, 192.0, 0.0, 0.0, 0.0, 0.0, 0.0, 0.0, 0.0, 0.0, 0.0, 1.7151619403631933E9, 0.0, 2024-05-08 12:52:20.363
133.0, -7788.755928129665, 0.0, 0.0, 0.0, 0.0, 0.0, 0.0, 0.0, -0.008, -0.054, 0.986, 192.0, 0.0, 0.0, 0.0, 0.0, 0.0, 0.0, 0.0, 0.0, 0.0, 1.7151619403632176E9, 0.0, 2024-05-08 12:52:20.363
134.0, -7511.080206761385, 0.0, 0.0, 0.0, 0.0, 0.0, 0.0, 0.0, -0.008, -0.054, 0.986, 192.0, 0.0, 0.0, 0.0, 0.0, 0.0, 0.0, 0.0, 0.0, 0.0, 1.7151619403632412E9, 0.0, 2024-05-08 12:52:20.363
135.0, -6775.685462437327, 0.0, 0.0, 0.0, 0.0, 0.0, 0.0, 0.0, -0.008, -0.054, 0.986, 192.0, 0.0, 0.0, 0.0, 0.0, 0.0, 0.0, 0.0, 0.0, 0.0, 1.7151619403632653E9, 0.0, 2024-05-08 12:52:20.363
136.0, -6296.53111654891, 0.0, 0.0, 0.0, 0.0, 0.0, 0.0, 0.0, -0.008, -0.054, 0.986, 192.0, 0.0, 0.0, 0.0, 0.0, 0.0, 0.0, 0.0, 0.0, 0.0, 1.7151619403633003E9, 0.0, 2024-05-08 12:52:20.363
137.0, -6451.808685279928, 0.0, 0.0, 0.0, 0.0, 0.0, 0.0, 0.0, -0.008, -0.054, 0.986, 192.0, 0.0, 0.0, 0.0, 0.0, 0.0, 0.0, 0.0, 0.0, 0.0, 1.7151619403634725E9, 0.0, 2024-05-08 12:52:20.363
138.0, -6817.863204224492, 0.0, 0.0, 0.0, 0.0, 0.0, 0.0, 0.0, -0.012, -0.056, 0.986, 192.0, 255.0, 160.0, 254.0, 64.0, 30.0, 208.0, 0.0, 0.0, 0.0, 1.7151619403634975E9, 0.0, 2024-05-08 12:52:20.363
139.0, -6765.5154187101625, 0.0, 0.0, 0.0, 0.0, 0.0, 0.0, 0.0, -0.012, -0.056, 0.986, 192.0, 0.0, 0.0, 0.0, 0.0, 0.0, 0.0, 0.0, 0.0, 0.0, 1.7151619403635244E9, 0.0, 2024-05-08 12:52:20.363
140.0, -6154.731649724442, 0.0, 0.0, 0.0, 0.0, 0.0, 0.0, 0.0, -0.012, -0.056, 0.986, 192.0, 0.0, 0.0, 0.0, 0.0, 0.0, 0.0, 0.0, 0.0, 0.0, 1.715161940363549E9, 0.0, 2024-05-08 12:52:20.363
141.0, -5710.915411819865, 0.0, 0.0, 0.0, 0.0, 0.0, 0.0, 0.0, -0.012, -0.056, 0.986, 192.0, 0.0, 0.0, 0.0, 0.0, 0.0, 0.0, 0.0, 0.0, 0.0, 1.7151619403635724E9, 0.0, 2024-05-08 12:52:20.363
142.0, -5940.870158776064, 0.0, 0.0, 0.0, 0.0, 0.0, 0.0, 0.0, -0.012, -0.056, 0.986, 192.0, 0.0, 0.0, 0.0, 0.0, 0.0, 0.0, 0.0, 0.0, 0.0, 1.7151619403636007E9, 0.0, 2024-05-08 12:52:20.363
143.0, -6353.237492232024, 0.0, 0.0, 0.0, 0.0, 0.0, 0.0, 0.0, -0.012, -0.056, 0.986, 192.0, 0.0, 0.0, 0.0, 0.0, 0.0, 0.0, 0.0, 0.0, 0.0, 1.7151619403636248E9, 0.0, 2024-05-08 12:52:20.363
144.0, -6307.259953887457, 0.0, 0.0, 0.0, 0.0, 0.0, 0.0, 0.0, -0.012, -0.056, 0.986, 192.0, 0.0, 0.0, 0.0, 0.0, 0.0, 0.0, 0.0, 0.0, 0.0, 1.715161940363648E9, 0.0, 2024-05-08 12:52:20.363
145.0, -5668.536504332603, 0.0, 0.0, 0.0, 0.0, 0.0, 0.0, 0.0, -0.012, -0.056, 0.986, 192.0, 0.0, 0.0, 0.0, 0.0, 0.0, 0.0, 0.0, 0.0, 0.0, 1.7151619403636715E9, 0.0, 2024-05-08 12:52:20.363
146.0, -5017.5866505606955, 0.0, 0.0, 0.0, 0.0, 0.0, 0.0, 0.0, -0.012, -0.056, 0.986, 192.0, 0.0, 0.0, 0.0, 0.0, 0.0, 0.0, 0.0, 0.0, 0.0, 1.715161940363695E9, 0.0, 2024-05-08 12:52:20.363
147.0, -5185.8729345647025, 0.0, 0.0, 0.0, 0.0, 0.0, 0.0, 0.0, -0.012, -0.056, 0.986, 192.0, 0.0, 0.0, 0.0, 0.0, 0.0, 0.0, 0.0, 0.0, 0.0, 1.7151619403637192E9, 0.0, 2024-05-08 12:52:20.363
148.0, -5728.975621339753, 0.0, 0.0, 0.0, 0.0, 0.0, 0.0, 0.0, -0.008, -0.058, 0.99, 192.0, 255.0, 192.0, 254.0, 48.0, 30.0, 240.0, 0.0, 0.0, 0.0, 1.7151619403637452E9, 0.0, 2024-05-08 12:52:20.363
149.0, -5808.927811256387, 0.0, 0.0, 0.0, 0.0, 0.0, 0.0, 0.0, -0.008, -0.058, 0.99, 192.0, 0.0, 0.0, 0.0, 0.0, 0.0, 0.0, 0.0, 0.0, 0.0, 1.7151619403637705E9, 0.0, 2024-05-08 12:52:20.363
150.0, -5235.0020688774675, 0.0, 0.0, 0.0, 0.0, 0.0, 0.0, 0.0, -0.008, -0.058, 0.99, 192.0, 0.0, 0.0, 0.0, 0.0, 0.0, 0.0, 0.0, 0.0, 0.0, 1.7151619403637936E9, 0.0, 2024-05-08 12:52:20.363
151.0, -4951.470190461897, 0.0, 0.0, 0.0, 0.0, 0.0, 0.0, 0.0, -0.008, -0.058, 0.99, 192.0, 0.0, 0.0, 0.0, 0.0, 0.0, 0.0, 0.0, 0.0, 0.0, 1.7151619403638184E9, 0.0, 2024-05-08 12:52:20.363
152.0, -5627.2304805791955, 0.0, 0.0, 0.0, 0.0, 0.0, 0.0, 0.0, -0.008, -0.058, 0.99, 192.0, 0.0, 0.0, 0.0, 0.0, 0.0, 0.0, 0.0, 0.0, 0.0, 1.7151619403638425E9, 0.0, 2024-05-08 12:52:20.363
153.0, -6390.497850239021, 0.0, 0.0, 0.0, 0.0, 0.0, 0.0, 0.0, -0.008, -0.058, 0.99, 192.0, 0.0, 0.0, 0.0, 0.0, 0.0, 0.0, 0.0, 0.0, 0.0, 1.7151619403638663E9, 0.0, 2024-05-08 12:52:20.363
154.0, -6379.992530345026, 0.0, 0.0, 0.0, 0.0, 0.0, 0.0, 0.0, -0.008, -0.058, 0.99, 192.0, 0.0, 0.0, 0.0, 0.0, 0.0, 0.0, 0.0, 0.0, 0.0, 1.7151619403639956E9, 0.0, 2024-05-08 12:52:20.363
155.0, -5666.88247524291, 0.0, 0.0, 0.0, 0.0, 0.0, 0.0, 0.0, -0.008, -0.058, 0.99, 192.0, 0.0, 0.0, 0.0, 0.0, 0.0, 0.0, 0.0, 0.0, 0.0, 1.7151619403640263E9, 0.0, 2024-05-08 12:52:20.364
156.0, -5181.603751373738, 0.0, 0.0, 0.0, 0.0, 0.0, 0.0, 0.0, -0.008, -0.058, 0.99, 192.0, 0.0, 0.0, 0.0, 0.0, 0.0, 0.0, 0.0, 0.0, 0.0, 1.715161940364052E9, 0.0, 2024-05-08 12:52:20.364
157.0, -5611.897183882855, 0.0, 0.0, 0.0, 0.0, 0.0, 0.0, 0.0, -0.008, -0.058, 0.99, 192.0, 0.0, 0.0, 0.0, 0.0, 0.0, 0.0, 0.0, 0.0, 0.0, 1.715161940364076E9, 0.0, 2024-05-08 12:52:20.364
158.0, -6268.9267121466055, 0.0, 0.0, 0.0, 0.0, 0.0, 0.0, 0.0, -0.004, -0.054, 0.988, 192.0, 255.0, 224.0, 254.0, 80.0, 30.0, 224.0, 0.0, 0.0, 0.0, 1.7151619403641E9, 0.0, 2024-05-08 12:52:20.364
159.0, -6303.482509074511, 0.0, 0.0, 0.0, 0.0, 0.0, 0.0, 0.0, -0.004, -0.054, 0.988, 192.0, 0.0, 0.0, 0.0, 0.0, 0.0, 0.0, 0.0, 0.0, 0.0, 1.7151619403641264E9, 0.0, 2024-05-08 12:52:20.364
160.0, -5749.561577983091, 0.0, 0.0, 0.0, 0.0, 0.0, 0.0, 0.0, -0.004, -0.054, 0.988, 192.0, 0.0, 0.0, 0.0, 0.0, 0.0, 0.0, 0.0, 0.0, 0.0, 1.7151619403641512E9, 0.0, 2024-05-08 12:52:20.364
161.0, -5435.40780966375, 0.0, 0.0, 0.0, 0.0, 0.0, 0.0, 0.0, -0.004, -0.054, 0.988, 192.0, 0.0, 0.0, 0.0, 0.0, 0.0, 0.0, 0.0, 0.0, 0.0, 1.7151619403641775E9, 0.0, 2024-05-08 12:52:20.364
162.0, -5614.869965895411, 0.0, 0.0, 0.0, 0.0, 0.0, 0.0, 0.0, -0.004, -0.054, 0.988, 192.0, 0.0, 0.0, 0.0, 0.0, 0.0, 0.0, 0.0, 0.0, 0.0, 1.7151619403642013E9, 0.0, 2024-05-08 12:52:20.364
163.0, -6065.570541092222, 0.0, 0.0, 0.0, 0.0, 0.0, 0.0, 0.0, -0.004, -0.054, 0.988, 192.0, 0.0, 0.0, 0.0, 0.0, 0.0, 0.0, 0.0, 0.0, 0.0, 1.7151619403642256E9, 0.0, 2024-05-08 12:52:20.364
164.0, -6069.43739288299, 0.0, 0.0, 0.0, 0.0, 0.0, 0.0, 0.0, -0.004, -0.054, 0.988, 192.0, 0.0, 0.0, 0.0, 0.0, 0.0, 0.0, 0.0, 0.0, 0.0, 1.7151619403642492E9, 0.0, 2024-05-08 12:52:20.364
165.0, -5155.474562105484, 0.0, 0.0, 0.0, 0.0, 0.0, 0.0, 0.0, -0.004, -0.054, 0.988, 192.0, 0.0, 0.0, 0.0, 0.0, 0.0, 0.0, 0.0, 0.0, 0.0, 1.715161940364272E9, 0.0, 2024-05-08 12:52:20.364
166.0, -4335.813741184919, 0.0, 0.0, 0.0, 0.0, 0.0, 0.0, 0.0, -0.004, -0.054, 0.988, 192.0, 0.0, 0.0, 0.0, 0.0, 0.0, 0.0, 0.0, 0.0, 0.0, 1.7151619403643076E9, 0.0, 2024-05-08 12:52:20.364
167.0, -4555.889017091873, 0.0, 0.0, 0.0, 0.0, 0.0, 0.0, 0.0, -0.006, -0.052000000000000005, 0.984, 192.0, 255.0, 208.0, 254.0, 96.0, 30.0, 192.0, 0.0, 0.0, 0.0, 1.7151619403643315E9, 0.0, 2024-05-08 12:52:20.364
168.0, -5049.504941642874, 0.0, 0.0, 0.0, 0.0, 0.0, 0.0, 0.0, -0.006, -0.052000000000000005, 0.984, 192.0, 0.0, 0.0, 0.0, 0.0, 0.0, 0.0, 0.0, 0.0, 0.0, 1.7151619403643603E9, 0.0, 2024-05-08 12:52:20.364
169.0, -4990.295170580765, 0.0, 0.0, 0.0, 0.0, 0.0, 0.0, 0.0, -0.006, -0.052000000000000005, 0.984, 192.0, 0.0, 0.0, 0.0, 0.0, 0.0, 0.0, 0.0, 0.0, 0.0, 1.7151619403643887E9, 0.0, 2024-05-08 12:52:20.364
170.0, -4324.324944534891, 0.0, 0.0, 0.0, 0.0, 0.0, 0.0, 0.0, -0.006, -0.052000000000000005, 0.984, 192.0, 0.0, 0.0, 0.0, 0.0, 0.0, 0.0, 0.0, 0.0, 0.0, 1.7151619403644128E9, 0.0, 2024-05-08 12:52:20.364
171.0, -3698.9231346754, 0.0, 0.0, 0.0, 0.0, 0.0, 0.0, 0.0, -0.006, -0.052000000000000005, 0.984, 192.0, 0.0, 0.0, 0.0, 0.0, 0.0, 0.0, 0.0, 0.0, 0.0, 1.715161940364545E9, 0.0, 2024-05-08 12:52:20.364
172.0, -4078.545162504335, 0.0, 0.0, 0.0, 0.0, 0.0, 0.0, 0.0, -0.006, -0.052000000000000005, 0.984, 192.0, 0.0, 0.0, 0.0, 0.0, 0.0, 0.0, 0.0, 0.0, 0.0, 1.7151619403645697E9, 0.0, 2024-05-08 12:52:20.364
173.0, -4754.551321810642, 0.0, 0.0, 0.0, 0.0, 0.0, 0.0, 0.0, -0.006, -0.052000000000000005, 0.984, 192.0, 0.0, 0.0, 0.0, 0.0, 0.0, 0.0, 0.0, 0.0, 0.0, 1.715161940364596E9, 0.0, 2024-05-08 12:52:20.364
174.0, -4859.179837605934, 0.0, 0.0, 0.0, 0.0, 0.0, 0.0, 0.0, -0.006, -0.052000000000000005, 0.984, 192.0, 0.0, 0.0, 0.0, 0.0, 0.0, 0.0, 0.0, 0.0, 0.0, 1.715161940364627E9, 0.0, 2024-05-08 12:52:20.364
175.0, -4049.7561156458996, 0.0, 0.0, 0.0, 0.0, 0.0, 0.0, 0.0, -0.006, -0.052000000000000005, 0.984, 192.0, 0.0, 0.0, 0.0, 0.0, 0.0, 0.0, 0.0, 0.0, 0.0, 1.71516194036465E9, 0.0, 2024-05-08 12:52:20.364
176.0, -3217.9582974861023, 0.0, 0.0, 0.0, 0.0, 0.0, 0.0, 0.0, -0.006, -0.052000000000000005, 0.984, 192.0, 0.0, 0.0, 0.0, 0.0, 0.0, 0.0, 0.0, 0.0, 0.0, 1.7151619403646731E9, 0.0, 2024-05-08 12:52:20.364
177.0, -3549.5911299694935, 0.0, 0.0, 0.0, 0.0, 0.0, 0.0, 0.0, -0.006, -0.05, 0.984, 192.0, 255.0, 208.0, 254.0, 112.0, 30.0, 192.0, 0.0, 0.0, 0.0, 1.715161940364696E9, 0.0, 2024-05-08 12:52:20.364
178.0, -4283.376548692769, 0.0, 0.0, 0.0, 0.0, 0.0, 0.0, 0.0, -0.006, -0.05, 0.984, 192.0, 0.0, 0.0, 0.0, 0.0, 0.0, 0.0, 0.0, 0.0, 0.0, 1.7151619403647192E9, 0.0, 2024-05-08 12:52:20.364
179.0, -4231.3193358563585, 0.0, 0.0, 0.0, 0.0, 0.0, 0.0, 0.0, -0.006, -0.05, 0.984, 192.0, 0.0, 0.0, 0.0, 0.0, 0.0, 0.0, 0.0, 0.0, 0.0, 1.7151619403647437E9, 0.0, 2024-05-08 12:52:20.364
180.0, -3496.1928124657647, 0.0, 0.0, 0.0, 0.0, 0.0, 0.0, 0.0, -0.006, -0.05, 0.984, 192.0, 0.0, 0.0, 0.0, 0.0, 0.0, 0.0, 0.0, 0.0, 0.0, 1.7151619403647685E9, 0.0, 2024-05-08 12:52:20.364
181.0, -2954.185361169024, 0.0, 0.0, 0.0, 0.0, 0.0, 0.0, 0.0, -0.006, -0.05, 0.984, 192.0, 0.0, 0.0, 0.0, 0.0, 0.0, 0.0, 0.0, 0.0, 0.0, 1.7151619403647916E9, 0.0, 2024-05-08 12:52:20.364
182.0, -3376.298055207498, 0.0, 0.0, 0.0, 0.0, 0.0, 0.0, 0.0, -0.006, -0.05, 0.984, 192.0, 0.0, 0.0, 0.0, 0.0, 0.0, 0.0, 0.0, 0.0, 0.0, 1.7151619403648171E9, 0.0, 2024-05-08 12:52:20.364
183.0, -4176.714024152044, 0.0, 0.0, 0.0, 0.0, 0.0, 0.0, 0.0, -0.006, -0.05, 0.984, 192.0, 0.0, 0.0, 0.0, 0.0, 0.0, 0.0, 0.0, 0.0, 0.0, 1.7151619403648407E9, 0.0, 2024-05-08 12:52:20.364
184.0, -4333.019773128006, 0.0, 0.0, 0.0, 0.0, 0.0, 0.0, 0.0, -0.006, -0.05, 0.984, 192.0, 0.0, 0.0, 0.0, 0.0, 0.0, 0.0, 0.0, 0.0, 0.0, 1.715161940364864E9, 0.0, 2024-05-08 12:52:20.364
185.0, -3650.9786428187663, 0.0, 0.0, 0.0, 0.0, 0.0, 0.0, 0.0, -0.006, -0.05, 0.984, 192.0, 0.0, 0.0, 0.0, 0.0, 0.0, 0.0, 0.0, 0.0, 0.0, 1.7151619403648877E9, 0.0, 2024-05-08 12:52:20.364
186.0, -3243.8863210542586, 0.0, 0.0, 0.0, 0.0, 0.0, 0.0, 0.0, -0.006, -0.05, 0.984, 192.0, 0.0, 0.0, 0.0, 0.0, 0.0, 0.0, 0.0, 0.0, 0.0, 1.7151619403649127E9, 0.0, 2024-05-08 12:52:20.364
187.0, -3925.7709891523114, 0.0, 0.0, 0.0, 0.0, 0.0, 0.0, 0.0, -0.008, -0.056, 0.988, 192.0, 255.0, 192.0, 254.0, 64.0, 30.0, 224.0, 0.0, 0.0, 0.0, 1.715161940364936E9, 0.0, 2024-05-08 12:52:20.364
188.0, -4796.326732197611, 0.0, 0.0, 0.0, 0.0, 0.0, 0.0, 0.0, -0.008, -0.056, 0.988, 192.0, 0.0, 0.0, 0.0, 0.0, 0.0, 0.0, 0.0, 0.0, 0.0, 1.715161940364961E9, 0.0, 2024-05-08 12:52:20.364
189.0, -4816.108026040558, 0.0, 0.0, 0.0, 0.0, 0.0, 0.0, 0.0, -0.008, -0.056, 0.988, 192.0, 0.0, 0.0, 0.0, 0.0, 0.0, 0.0, 0.0, 0.0, 0.0, 1.7151619403651042E9, 0.0, 2024-05-08 12:52:20.365
190.0, -3849.037450437242, 0.0, 0.0, 0.0, 0.0, 0.0, 0.0, 0.0, -0.008, -0.056, 0.988, 192.0, 0.0, 0.0, 0.0, 0.0, 0.0, 0.0, 0.0, 0.0, 0.0, 1.7151619403651285E9, 0.0, 2024-05-08 12:52:20.365
191.0, -3045.671051224596, 0.0, 0.0, 0.0, 0.0, 0.0, 0.0, 0.0, -0.008, -0.056, 0.988, 192.0, 0.0, 0.0, 0.0, 0.0, 0.0, 0.0, 0.0, 0.0, 0.0, 1.715161940365152E9, 0.0, 2024-05-08 12:52:20.365
192.0, -3213.39854161722, 0.0, 0.0, 0.0, 0.0, 0.0, 0.0, 0.0, -0.008, -0.056, 0.988, 192.0, 0.0, 0.0, 0.0, 0.0, 0.0, 0.0, 0.0, 0.0, 0.0, 1.715161940365178E9, 0.0, 2024-05-08 12:52:20.365
193.0, -3724.6052890545475, 0.0, 0.0, 0.0, 0.0, 0.0, 0.0, 0.0, -0.008, -0.056, 0.988, 192.0, 0.0, 0.0, 0.0, 0.0, 0.0, 0.0, 0.0, 0.0, 0.0, 1.7151619403652027E9, 0.0, 2024-05-08 12:52:20.365
194.0, -3528.1334552923986, 0.0, 0.0, 0.0, 0.0, 0.0, 0.0, 0.0, -0.008, -0.056, 0.988, 192.0, 0.0, 0.0, 0.0, 0.0, 0.0, 0.0, 0.0, 0.0, 0.0, 1.715161940365226E9, 0.0, 2024-05-08 12:52:20.365
195.0, -2691.440605096889, 0.0, 0.0, 0.0, 0.0, 0.0, 0.0, 0.0, -0.008, -0.056, 0.988, 192.0, 0.0, 0.0, 0.0, 0.0, 0.0, 0.0, 0.0, 0.0, 0.0, 1.7151619403652499E9, 0.0, 2024-05-08 12:52:20.365
196.0, -2192.5273171099802, 0.0, 0.0, 0.0, 0.0, 0.0, 0.0, 0.0, -0.008, -0.056, 0.988, 192.0, 0.0, 0.0, 0.0, 0.0, 0.0, 0.0, 0.0, 0.0, 0.0, 1.7151619403652732E9, 0.0, 2024-05-08 12:52:20.365
197.0, -2704.2034511808697, 0.0, 0.0, 0.0, 0.0, 0.0, 0.0, 0.0, -0.008, -0.058, 0.986, 192.0, 255.0, 192.0, 254.0, 48.0, 30.0, 208.0, 0.0, 0.0, 0.0, 1.7151619403653085E9, 0.0, 2024-05-08 12:52:20.365
198.0, -3548.7417636801915, 0.0, 0.0, 0.0, 0.0, 0.0, 0.0, 0.0, -0.008, -0.058, 0.986, 192.0, 0.0, 0.0, 0.0, 0.0, 0.0, 0.0, 0.0, 0.0, 0.0, 1.7151619403653357E9, 0.0, 2024-05-08 12:52:20.365
199.0, -3689.2224775817967, 0.0, 0.0, 0.0, 0.0, 0.0, 0.0, 0.0, -0.008, -0.058, 0.986, 192.0, 0.0, 0.0, 0.0, 0.0, 0.0, 0.0, 0.0, 0.0, 0.0, 1.7151619403653593E9, 0.0, 2024-05-08 12:52:20.365
200.0, -2937.5556632942753, 0.0, 0.0, 0.0, 0.0, 0.0, 0.0, 0.0, -0.008, -0.058, 0.986, 192.0, 0.0, 0.0, 0.0, 0.0, 0.0, 0.0, 0.0, 0.0, 0.0, 1.715161940365383E9, 0.0, 2024-05-08 12:52:20.365
201.0, -2304.0625219419626, 0.0, 0.0, 0.0, 0.0, 0.0, 0.0, 0.0, -0.008, -0.058, 0.986, 192.0, 0.0, 0.0, 0.0, 0.0, 0.0, 0.0, 0.0, 0.0, 0.0, 1.7151619403654068E9, 0.0, 2024-05-08 12:52:20.365
202.0, -2696.872078999529, 0.0, 0.0, 0.0, 0.0, 0.0, 0.0, 0.0, -0.008, -0.058, 0.986, 192.0, 0.0, 0.0, 0.0, 0.0, 0.0, 0.0, 0.0, 0.0, 0.0, 1.7151619403654304E9, 0.0, 2024-05-08 12:52:20.365
203.0, -3602.2965433951076, 0.0, 0.0, 0.0, 0.0, 0.0, 0.0, 0.0, -0.008, -0.058, 0.986, 192.0, 0.0, 0.0, 0.0, 0.0, 0.0, 0.0, 0.0, 0.0, 0.0, 1.7151619403654537E9, 0.0, 2024-05-08 12:52:20.365
204.0, -3709.786082480679, 0.0, 0.0, 0.0, 0.0, 0.0, 0.0, 0.0, -0.008, -0.058, 0.986, 192.0, 0.0, 0.0, 0.0, 0.0, 0.0, 0.0, 0.0, 0.0, 0.0, 1.715161940365477E9, 0.0, 2024-05-08 12:52:20.365
205.0, -2901.0776163432142, 0.0, 0.0, 0.0, 0.0, 0.0, 0.0, 0.0, -0.008, -0.058, 0.986, 192.0, 0.0, 0.0, 0.0, 0.0, 0.0, 0.0, 0.0, 0.0, 0.0, 1.7151619403655005E9, 0.0, 2024-05-08 12:52:20.365
206.0, -2318.6135075823677, 0.0, 0.0, 0.0, 0.0, 0.0, 0.0, 0.0, -0.008, -0.058, 0.986, 192.0, 0.0, 0.0, 0.0, 0.0, 0.0, 0.0, 0.0, 0.0, 0.0, 1.715161940365552E9, 0.0, 2024-05-08 12:52:20.365
207.0, -2742.4919894328104, 0.0, 0.0, 0.0, 0.0, 0.0, 0.0, 0.0, -0.006, -0.058, 0.984, 192.0, 255.0, 208.0, 254.0, 48.0, 30.0, 192.0, 0.0, 0.0, 0.0, 1.715161940365574E9, 0.0, 2024-05-08 12:52:20.365
208.0, -3457.9489777027343, 0.0, 0.0, 0.0, 0.0, 0.0, 0.0, 0.0, -0.006, -0.058, 0.984, 192.0, 0.0, 0.0, 0.0, 0.0, 0.0, 0.0, 0.0, 0.0, 0.0, 1.7151619403656003E9, 0.0, 2024-05-08 12:52:20.365
209.0, -3506.7428358486695, 0.0, 0.0, 0.0, 0.0, 0.0, 0.0, 0.0, -0.006, -0.058, 0.984, 192.0, 0.0, 0.0, 0.0, 0.0, 0.0, 0.0, 0.0, 0.0, 0.0, 1.7151619403656228E9, 0.0, 2024-05-08 12:52:20.365
210.0, -2740.703849876386, 0.0, 0.0, 0.0, 0.0, 0.0, 0.0, 0.0, -0.006, -0.058, 0.984, 192.0, 0.0, 0.0, 0.0, 0.0, 0.0, 0.0, 0.0, 0.0, 0.0, 1.715161940365648E9, 0.0, 2024-05-08 12:52:20.365
211.0, -2050.4372776075934, 0.0, 0.0, 0.0, 0.0, 0.0, 0.0, 0.0, -0.006, -0.058, 0.984, 192.0, 0.0, 0.0, 0.0, 0.0, 0.0, 0.0, 0.0, 0.0, 0.0, 1.7151619403656712E9, 0.0, 2024-05-08 12:52:20.365
212.0, -2311.9750394791413, 0.0, 0.0, 0.0, 0.0, 0.0, 0.0, 0.0, -0.006, -0.058, 0.984, 192.0, 0.0, 0.0, 0.0, 0.0, 0.0, 0.0, 0.0, 0.0, 0.0, 1.7151619403656921E9, 0.0, 2024-05-08 12:52:20.365
213.0, -2844.9747377603935, 0.0, 0.0, 0.0, 0.0, 0.0, 0.0, 0.0, -0.006, -0.058, 0.984, 192.0, 0.0, 0.0, 0.0, 0.0, 0.0, 0.0, 0.0, 0.0, 0.0, 1.715161940365714E9, 0.0, 2024-05-08 12:52:20.365
214.0, -3019.5418619563416, 0.0, 0.0, 0.0, 0.0, 0.0, 0.0, 0.0, -0.006, -0.058, 0.984, 192.0, 0.0, 0.0, 0.0, 0.0, 0.0, 0.0, 0.0, 0.0, 0.0, 1.7151619403657365E9, 0.0, 2024-05-08 12:52:20.365
215.0, -2473.6452071243775, 0.0, 0.0, 0.0, 0.0, 0.0, 0.0, 0.0, -0.006, -0.058, 0.984, 192.0, 0.0, 0.0, 0.0, 0.0, 0.0, 0.0, 0.0, 0.0, 0.0, 1.7151619403657577E9, 0.0, 2024-05-08 12:52:20.365
216.0, -2022.2070243605406, 0.0, 0.0, 0.0, 0.0, 0.0, 0.0, 0.0, -0.006, -0.058, 0.984, 192.0, 0.0, 0.0, 0.0, 0.0, 0.0, 0.0, 0.0, 0.0, 0.0, 1.715161940365784E9, 0.0, 2024-05-08 12:52:20.365
217.0, -2334.6844118457334, 0.0, 0.0, 0.0, 0.0, 0.0, 0.0, 0.0, -0.006, -0.056, 0.988, 192.0, 255.0, 208.0, 254.0, 64.0, 30.0, 224.0, 0.0, 0.0, 0.0, 1.7151619403658178E9, 0.0, 2024-05-08 12:52:20.365
218.0, -2958.2310269154345, 0.0, 0.0, 0.0, 0.0, 0.0, 0.0, 0.0, -0.006, -0.056, 0.988, 192.0, 0.0, 0.0, 0.0, 0.0, 0.0, 0.0, 0.0, 0.0, 0.0, 1.7151619403658416E9, 0.0, 2024-05-08 12:52:20.365
219.0, -3095.6942553155727, 0.0, 0.0, 0.0, 0.0, 0.0, 0.0, 0.0, -0.006, -0.056, 0.988, 192.0, 0.0, 0.0, 0.0, 0.0, 0.0, 0.0, 0.0, 0.0, 0.0, 1.7151619403658686E9, 0.0, 2024-05-08 12:52:20.365
220.0, -2482.787070606598, 0.0, 0.0, 0.0, 0.0, 0.0, 0.0, 0.0, -0.006, -0.056, 0.988, 192.0, 0.0, 0.0, 0.0, 0.0, 0.0, 0.0, 0.0, 0.0, 0.0, 1.715161940365891E9, 0.0, 2024-05-08 12:52:20.365
221.0, -1892.8798309421338, 0.0, 0.0, 0.0, 0.0, 0.0, 0.0, 0.0, -0.006, -0.056, 0.988, 192.0, 0.0, 0.0, 0.0, 0.0, 0.0, 0.0, 0.0, 0.0, 0.0, 1.7151619403659148E9, 0.0, 2024-05-08 12:52:20.365
222.0, -2197.154128212229, 0.0, 0.0, 0.0, 0.0, 0.0, 0.0, 0.0, -0.006, -0.056, 0.988, 192.0, 0.0, 0.0, 0.0, 0.0, 0.0, 0.0, 0.0, 0.0, 0.0, 1.7151619403659468E9, 0.0, 2024-05-08 12:52:20.365
223.0, -3194.623076274762, 0.0, 0.0, 0.0, 0.0, 0.0, 0.0, 0.0, -0.006, -0.056, 0.988, 192.0, 0.0, 0.0, 0.0, 0.0, 0.0, 0.0, 0.0, 0.0, 0.0, 1.7151619403660269E9, 0.0, 2024-05-08 12:52:20.366
224.0, -3570.959397668767, 0.0, 0.0, 0.0, 0.0, 0.0, 0.0, 0.0, -0.006, -0.056, 0.988, 192.0, 0.0, 0.0, 0.0, 0.0, 0.0, 0.0, 0.0, 0.0, 0.0, 1.715161940366053E9, 0.0, 2024-05-08 12:52:20.366
225.0, -3167.465706761564, 0.0, 0.0, 0.0, 0.0, 0.0, 0.0, 0.0, -0.006, -0.056, 0.988, 192.0, 0.0, 0.0, 0.0, 0.0, 0.0, 0.0, 0.0, 0.0, 0.0, 1.715161940366076E9, 0.0, 2024-05-08 12:52:20.366
226.0, -2807.2449931198353, 0.0, 0.0, 0.0, 0.0, 0.0, 0.0, 0.0, -0.006, -0.056, 0.988, 192.0, 0.0, 0.0, 0.0, 0.0, 0.0, 0.0, 0.0, 0.0, 0.0, 1.7151619403661025E9, 0.0, 2024-05-08 12:52:20.366
227.0, -3296.3011618019536, 0.0, 0.0, 0.0, 0.0, 0.0, 0.0, 0.0, -0.006, -0.054, 0.992, 192.0, 255.0, 208.0, 254.0, 80.0, 31.0, 0.0, 0.0, 0.0, 0.0, 1.715161940366124E9, 0.0, 2024-05-08 12:52:20.366
228.0, -4133.86573003122, 0.0, 0.0, 0.0, 0.0, 0.0, 0.0, 0.0, -0.006, -0.054, 0.992, 192.0, 0.0, 0.0, 0.0, 0.0, 0.0, 0.0, 0.0, 0.0, 0.0, 1.715161940366148E9, 0.0, 2024-05-08 12:52:20.366
229.0, -4323.453226501135, 0.0, 0.0, 0.0, 0.0, 0.0, 0.0, 0.0, -0.006, -0.054, 0.992, 192.0, 0.0, 0.0, 0.0, 0.0, 0.0, 0.0, 0.0, 0.0, 0.0, 1.7151619403661716E9, 0.0, 2024-05-08 12:52:20.366
230.0, -3656.6783376548697, 0.0, 0.0, 0.0, 0.0, 0.0, 0.0, 0.0, -0.006, -0.054, 0.992, 192.0, 0.0, 0.0, 0.0, 0.0, 0.0, 0.0, 0.0, 0.0, 0.0, 1.7151619403661923E9, 0.0, 2024-05-08 12:52:20.366
231.0, -2953.0454222018034, 0.0, 0.0, 0.0, 0.0, 0.0, 0.0, 0.0, -0.006, -0.054, 0.992, 192.0, 0.0, 0.0, 0.0, 0.0, 0.0, 0.0, 0.0, 0.0, 0.0, 1.715161940366214E9, 0.0, 2024-05-08 12:52:20.366
232.0, -2991.244553475923, 0.0, 0.0, 0.0, 0.0, 0.0, 0.0, 0.0, -0.006, -0.054, 0.992, 192.0, 0.0, 0.0, 0.0, 0.0, 0.0, 0.0, 0.0, 0.0, 0.0, 1.7151619403662355E9, 0.0, 2024-05-08 12:52:20.366
233.0, -3454.484457312162, 0.0, 0.0, 0.0, 0.0, 0.0, 0.0, 0.0, -0.006, -0.054, 0.992, 192.0, 0.0, 0.0, 0.0, 0.0, 0.0, 0.0, 0.0, 0.0, 0.0, 1.7151619403662612E9, 0.0, 2024-05-08 12:52:20.366
234.0, -3439.0170501490893, 0.0, 0.0, 0.0, 0.0, 0.0, 0.0, 0.0, -0.006, -0.054, 0.992, 192.0, 0.0, 0.0, 0.0, 0.0, 0.0, 0.0, 0.0, 0.0, 0.0, 1.715161940366284E9, 0.0, 2024-05-08 12:52:20.366
235.0, -2620.2726507511916, 0.0, 0.0, 0.0, 0.0, 0.0, 0.0, 0.0, -0.006, -0.054, 0.992, 192.0, 0.0, 0.0, 0.0, 0.0, 0.0, 0.0, 0.0, 0.0, 0.0, 1.715161940366326E9, 0.0, 2024-05-08 12:52:20.366
236.0, -1919.9924969664214, 0.0, 0.0, 0.0, 0.0, 0.0, 0.0, 0.0, -0.006, -0.054, 0.992, 192.0, 0.0, 0.0, 0.0, 0.0, 0.0, 0.0, 0.0, 0.0, 0.0, 1.7151619403663514E9, 0.0, 2024-05-08 12:52:20.366
237.0, -2021.0894371377751, 0.0, 0.0, 0.0, 0.0, 0.0, 0.0, 0.0, -0.008, -0.056, 0.992, 192.0, 255.0, 192.0, 254.0, 64.0, 31.0, 0.0, 0.0, 0.0, 0.0, 1.7151619403663745E9, 0.0, 2024-05-08 12:52:20.366
238.0, -2565.063841946583, 0.0, 0.0, 0.0, 0.0, 0.0, 0.0, 0.0, -0.008, -0.056, 0.992, 192.0, 0.0, 0.0, 0.0, 0.0, 0.0, 0.0, 0.0, 0.0, 0.0, 1.7151619403664E9, 0.0, 2024-05-08 12:52:20.366
239.0, -2568.0813274480497, 0.0, 0.0, 0.0, 0.0, 0.0, 0.0, 0.0, -0.008, -0.056, 0.992, 192.0, 0.0, 0.0, 0.0, 0.0, 0.0, 0.0, 0.0, 0.0, 0.0, 1.7151619403664248E9, 0.0, 2024-05-08 12:52:20.366
240.0, -1754.4107740415066, 0.0, 0.0, 0.0, 0.0, 0.0, 0.0, 0.0, -0.008, -0.056, 0.992, 192.0, 0.0, 0.0, 0.0, 0.0, 0.0, 0.0, 0.0, 0.0, 0.0, 1.7151619403664503E9, 0.0, 2024-05-08 12:52:20.366
241.0, -978.8946484201728, 0.0, 0.0, 0.0, 0.0, 0.0, 0.0, 0.0, -0.008, -0.056, 0.992, 192.0, 0.0, 0.0, 0.0, 0.0, 0.0, 0.0, 0.0, 0.0, 0.0, 1.7151619403665483E9, 0.0, 2024-05-08 12:52:20.366
242.0, -1075.0518530669037, 0.0, 0.0, 0.0, 0.0, 0.0, 0.0, 0.0, -0.008, -0.056, 0.992, 192.0, 0.0, 0.0, 0.0, 0.0, 0.0, 0.0, 0.0, 0.0, 0.0, 1.715161940842232E9, 0.0, 2024-05-08 12:52:20.842
243.0, -1676.7384620593145, 0.0, 0.0, 0.0, 0.0, 0.0, 0.0, 0.0, -0.008, -0.056, 0.992, 192.0, 0.0, 0.0, 0.0, 0.0, 0.0, 0.0, 0.0, 0.0, 0.0, 1.7151619408423412E9, 0.0, 2024-05-08 12:52:20.842
244.0, -1704.4546251838954, 0.0, 0.0, 0.0, 0.0, 0.0, 0.0, 0.0, -0.008, -0.056, 0.992, 192.0, 0.0, 0.0, 0.0, 0.0, 0.0, 0.0, 0.0, 0.0, 0.0, 1.715161940842382E9, 0.0, 2024-05-08 12:52:20.842
245.0, -902.6528480831204, 0.0, 0.0, 0.0, 0.0, 0.0, 0.0, 0.0, -0.008, -0.056, 0.992, 192.0, 0.0, 0.0, 0.0, 0.0, 0.0, 0.0, 0.0, 0.0, 0.0, 1.7151619408424184E9, 0.0, 2024-05-08 12:52:20.842
246.0, -150.71781286213553, 0.0, 0.0, 0.0, 0.0, 0.0, 0.0, 0.0, -0.008, -0.056, 0.992, 192.0, 0.0, 0.0, 0.0, 0.0, 0.0, 0.0, 0.0, 0.0, 0.0, 1.7151619408424444E9, 0.0, 2024-05-08 12:52:20.842
247.0, -233.64278479132471, 0.0, 0.0, 0.0, 0.0, 0.0, 0.0, 0.0, -0.008, -0.058, 0.994, 192.0, 255.0, 192.0, 254.0, 48.0, 31.0, 16.0, 0.0, 0.0, 0.0, 1.7151619408424673E9, 0.0, 2024-05-08 12:52:20.842
248.0, -855.2224463489588, 0.0, 0.0, 0.0, 0.0, 0.0, 0.0, 0.0, -0.008, -0.058, 0.994, 192.0, 0.0, 0.0, 0.0, 0.0, 0.0, 0.0, 0.0, 0.0, 0.0, 1.7151619408425035E9, 0.0, 2024-05-08 12:52:20.842
249.0, -974.6254652292091, 0.0, 0.0, 0.0, 0.0, 0.0, 0.0, 0.0, -0.008, -0.058, 0.994, 192.0, 0.0, 0.0, 0.0, 0.0, 0.0, 0.0, 0.0, 0.0, 0.0, 1.715161940842528E9, 0.0, 2024-05-08 12:52:20.842
250.0, -589.0578733751623, 0.0, 0.0, 0.0, 0.0, 0.0, 0.0, 0.0, -0.008, -0.058, 0.994, 192.0, 0.0, 0.0, 0.0, 0.0, 0.0, 0.0, 0.0, 0.0, 0.0, 1.7151619408425508E9, 0.0, 2024-05-08 12:52:20.842
251.0, -479.10964239950687, 0.0, 0.0, 0.0, 0.0, 0.0, 0.0, 0.0, -0.008, -0.058, 0.994, 192.0, 0.0, 0.0, 0.0, 0.0, 0.0, 0.0, 0.0, 0.0, 0.0, 1.7151619408425725E9, 0.0, 2024-05-08 12:52:20.842
252.0, -844.7394781994199, 0.0, 0.0, 0.0, 0.0, 0.0, 0.0, 0.0, -0.008, -0.058, 0.994, 192.0, 0.0, 0.0, 0.0, 0.0, 0.0, 0.0, 0.0, 0.0, 0.0, 1.7151619408425956E9, 0.0, 2024-05-08 12:52:20.842
253.0, -1578.9495800673462, 0.0, 0.0, 0.0, 0.0, 0.0, 0.0, 0.0, -0.008, -0.058, 0.994, 192.0, 0.0, 0.0, 0.0, 0.0, 0.0, 0.0, 0.0, 0.0, 0.0, 1.7151619408426175E9, 0.0, 2024-05-08 12:52:20.842
254.0, -1988.165317555108, 0.0, 0.0, 0.0, 0.0, 0.0, 0.0, 0.0, -0.008, -0.058, 0.994, 192.0, 0.0, 0.0, 0.0, 0.0, 0.0, 0.0, 0.0, 0.0, 0.0, 1.7151619408426404E9, 0.0, 2024-05-08 12:52:20.842
255.0, -1548.6406145859498, 0.0, 0.0, 0.0, 0.0, 0.0, 0.0, 0.0, -0.008, -0.058, 0.994, 192.0, 0.0, 0.0, 0.0, 0.0, 0.0, 0.0, 0.0, 0.0, 0.0, 1.715161940842662E9, 0.0, 2024-05-08 12:52:20.842
0.0, -957.4146219986227, 0.0, 0.0, 0.0, 0.0, 0.0, 0.0, 0.0, -0.008, -0.058, 0.994, 192.0, 0.0, 0.0, 0.0, 0.0, 0.0, 0.0, 0.0, 0.0, 0.0, 1.7151619408426857E9, 0.0, 2024-05-08 12:52:20.842
1.0, -1104.4891005145432, 0.0, 0.0, 0.0, 0.0, 0.0, 0.0, 0.0, -0.014, -0.05, 0.992, 192.0, 255.0, 144.0, 254.0, 112.0, 31.0, 0.0, 0.0, 0.0, 0.0, 1.715161940842713E9, 0.0, 2024-05-08 12:52:20.842
2.0, -1922.3394301342287, 0.0, 0.0, 0.0, 0.0, 0.0, 0.0, 0.0, -0.014, -0.05, 0.992, 192.0, 0.0, 0.0, 0.0, 0.0, 0.0, 0.0, 0.0, 0.0, 0.0, 1.7151619408428433E9, 0.0, 2024-05-08 12:52:20.842
3.0, -2242.1034863118516, 0.0, 0.0, 0.0, 0.0, 0.0, 0.0, 0.0, -0.014, -0.05, 0.992, 192.0, 0.0, 0.0, 0.0, 0.0, 0.0, 0.0, 0.0, 0.0, 0.0, 1.715161940842871E9, 0.0, 2024-05-08 12:52:20.842
4.0, -1783.6692075335036, 0.0, 0.0, 0.0, 0.0, 0.0, 0.0, 0.0, -0.014, -0.05, 0.992, 192.0, 0.0, 0.0, 0.0, 0.0, 0.0, 0.0, 0.0, 0.0, 0.0, 1.71516194084291E9, 0.0, 2024-05-08 12:52:20.842
5.0, -1210.235203532601, 0.0, 0.0, 0.0, 0.0, 0.0, 0.0, 0.0, -0.014, -0.05, 0.992, 192.0, 0.0, 0.0, 0.0, 0.0, 0.0, 0.0, 0.0, 0.0, 0.0, 1.7151619408429365E9, 0.0, 2024-05-08 12:52:20.842
6.0, -1436.5019126536743, 0.0, 0.0, 0.0, 0.0, 0.0, 0.0, 0.0, -0.014, -0.05, 0.992, 192.0, 0.0, 0.0, 0.0, 0.0, 0.0, 0.0, 0.0, 0.0, 0.0, 1.7151619408429627E9, 0.0, 2024-05-08 12:52:20.842
7.0, -2236.20262577565, 0.0, 0.0, 0.0, 0.0, 0.0, 0.0, 0.0, -0.014, -0.05, 0.992, 192.0, 0.0, 0.0, 0.0, 0.0, 0.0, 0.0, 0.0, 0.0, 0.0, 1.715161940842991E9, 0.0, 2024-05-08 12:52:20.842
8.0, -2638.690488182365, 0.0, 0.0, 0.0, 0.0, 0.0, 0.0, 0.0, -0.014, -0.05, 0.992, 192.0, 0.0, 0.0, 0.0, 0.0, 0.0, 0.0, 0.0, 0.0, 0.0, 1.7151619408430202E9, 0.0, 2024-05-08 12:52:20.843
9.0, -2156.697470748123, 0.0, 0.0, 0.0, 0.0, 0.0, 0.0, 0.0, -0.014, -0.05, 0.992, 192.0, 0.0, 0.0, 0.0, 0.0, 0.0, 0.0, 0.0, 0.0, 0.0, 1.715161940843047E9, 0.0, 2024-05-08 12:52:20.843
10.0, -1577.6084754000278, 0.0, 0.0, 0.0, 0.0, 0.0, 0.0, 0.0, -0.014, -0.05, 0.992, 192.0, 0.0, 0.0, 0.0, 0.0, 0.0, 0.0, 0.0, 0.0, 0.0, 1.7151619408430767E9, 0.0, 2024-05-08 12:52:20.843
11.0, -1525.8865387304472, 0.0, 0.0, 0.0, 0.0, 0.0, 0.0, 0.0, -0.014, -0.056, 0.99, 192.0, 255.0, 144.0, 254.0, 64.0, 30.0, 240.0, 0.0, 0.0, 0.0, 1.7151619408431056E9, 0.0, 2024-05-08 12:52:20.843
12.0, -2175.539991323947, 0.0, 0.0, 0.0, 0.0, 0.0, 0.0, 0.0, -0.014, -0.056, 0.99, 192.0, 0.0, 0.0, 0.0, 0.0, 0.0, 0.0, 0.0, 0.0, 0.0, 1.715161940843134E9, 0.0, 2024-05-08 12:52:20.843
13.0, -2399.4374155327578, 0.0, 0.0, 0.0, 0.0, 0.0, 0.0, 0.0, -0.014, -0.056, 0.99, 192.0, 0.0, 0.0, 0.0, 0.0, 0.0, 0.0, 0.0, 0.0, 0.0, 1.7151619408431609E9, 0.0, 2024-05-08 12:52:20.843
14.0, -1868.851705652679, 0.0, 0.0, 0.0, 0.0, 0.0, 0.0, 0.0, -0.014, -0.056, 0.99, 192.0, 0.0, 0.0, 0.0, 0.0, 0.0, 0.0, 0.0, 0.0, 0.0, 1.7151619408431876E9, 0.0, 2024-05-08 12:52:20.843
15.0, -1004.5768027993206, 0.0, 0.0, 0.0, 0.0, 0.0, 0.0, 0.0, -0.014, -0.056, 0.99, 192.0, 0.0, 0.0, 0.0, 0.0, 0.0, 0.0, 0.0, 0.0, 0.0, 1.7151619408432136E9, 0.0, 2024-05-08 12:52:20.843
16.0, -997.3795410847117, 0.0, 0.0, 0.0, 0.0, 0.0, 0.0, 0.0, -0.014, -0.056, 0.99, 192.0, 0.0, 0.0, 0.0, 0.0, 0.0, 0.0, 0.0, 0.0, 0.0, 1.7151619408432405E9, 0.0, 2024-05-08 12:52:20.843
17.0, -1708.7685118637696, 0.0, 0.0, 0.0, 0.0, 0.0, 0.0, 0.0, -0.014, -0.056, 0.99, 192.0, 0.0, 0.0, 0.0, 0.0, 0.0, 0.0, 0.0, 0.0, 0.0, 1.7151619408432698E9, 0.0, 2024-05-08 12:52:20.843
18.0, -2136.9832321385425, 0.0, 0.0, 0.0, 0.0, 0.0, 0.0, 0.0, -0.014, -0.056, 0.99, 192.0, 0.0, 0.0, 0.0, 0.0, 0.0, 0.0, 0.0, 0.0, 0.0, 1.7151619408432996E9, 0.0, 2024-05-08 12:52:20.843
19.0, -1533.8661115009918, 0.0, 0.0, 0.0, 0.0, 0.0, 0.0, 0.0, -0.014, -0.056, 0.99, 192.0, 0.0, 0.0, 0.0, 0.0, 0.0, 0.0, 0.0, 0.0, 0.0, 1.7151619408433268E9, 0.0, 2024-05-08 12:52:20.843
20.0, -661.678691110455, 0.0, 0.0, 0.0, 0.0, 0.0, 0.0, 0.0, -0.014, -0.056, 0.99, 192.0, 0.0, 0.0, 0.0, 0.0, 0.0, 0.0, 0.0, 0.0, 0.0, 1.7151619408433704E9, 0.0, 2024-05-08 12:52:20.843
21.0, -483.51293605720235, 0.0, 0.0, 0.0, 0.0, 0.0, 0.0, 0.0, -0.012, -0.052000000000000005, 0.994, 192.0, 255.0, 160.0, 254.0, 96.0, 31.0, 16.0, 0.0, 0.0, 0.0, 1.7151619408433924E9, 0.0, 2024-05-08 12:52:20.843
22.0, -826.1428268126043, 0.0, 0.0, 0.0, 0.0, 0.0, 0.0, 0.0, -0.012, -0.052000000000000005, 0.994, 192.0, 0.0, 0.0, 0.0, 0.0, 0.0, 0.0, 0.0, 0.0, 0.0, 1.7151619408434143E9, 0.0, 2024-05-08 12:52:20.843
23.0, -802.3605707121576, 0.0, 0.0, 0.0, 0.0, 0.0, 0.0, 0.0, -0.012, -0.052000000000000005, 0.994, 192.0, 0.0, 0.0, 0.0, 0.0, 0.0, 0.0, 0.0, 0.0, 0.0, 1.7151619408434367E9, 0.0, 2024-05-08 12:52:20.843
24.0, -41.99892783152197, 0.0, 0.0, 0.0, 0.0, 0.0, 0.0, 0.0, -0.012, -0.052000000000000005, 0.994, 192.0, 0.0, 0.0, 0.0, 0.0, 0.0, 0.0, 0.0, 0.0, 0.0, 1.7151619408434584E9, 0.0, 2024-05-08 12:52:20.843
25.0, 855.4236120490566, 0.0, 0.0, 0.0, 0.0, 0.0, 0.0, 0.0, -0.012, -0.052000000000000005, 0.994, 192.0, 0.0, 0.0, 0.0, 0.0, 0.0, 0.0, 0.0, 0.0, 0.0, 1.7151619408434806E9, 0.0, 2024-05-08 12:52:20.843
26.0, 1057.1034022692922, 0.0, 0.0, 0.0, 0.0, 0.0, 0.0, 0.0, -0.012, -0.052000000000000005, 0.994, 192.0, 0.0, 0.0, 0.0, 0.0, 0.0, 0.0, 0.0, 0.0, 0.0, 1.7151619408435028E9, 0.0, 2024-05-08 12:52:20.843
27.0, 822.9688790999508, 0.0, 0.0, 0.0, 0.0, 0.0, 0.0, 0.0, -0.012, -0.052000000000000005, 0.994, 192.0, 0.0, 0.0, 0.0, 0.0, 0.0, 0.0, 0.0, 0.0, 0.0, 1.7151619408435245E9, 0.0, 2024-05-08 12:52:20.843
28.0, 994.0044276719603, 0.0, 0.0, 0.0, 0.0, 0.0, 0.0, 0.0, -0.012, -0.052000000000000005, 0.994, 192.0, 0.0, 0.0, 0.0, 0.0, 0.0, 0.0, 0.0, 0.0, 0.0, 1.715161940843552E9, 0.0, 2024-05-08 12:52:20.843
29.0, 2024.0175156614205, 0.0, 0.0, 0.0, 0.0, 0.0, 0.0, 0.0, -0.012, -0.052000000000000005, 0.994, 192.0, 0.0, 0.0, 0.0, 0.0, 0.0, 0.0, 0.0, 0.0, 0.0, 1.7151619408435783E9, 0.0, 2024-05-08 12:52:20.843
30.0, 3252.3576322028202, 0.0, 0.0, 0.0, 0.0, 0.0, 0.0, 0.0, -0.012, -0.052000000000000005, 0.994, 192.0, 0.0, 0.0, 0.0, 0.0, 0.0, 0.0, 0.0, 0.0, 0.0, 1.7151619408436017E9, 0.0, 2024-05-08 12:52:20.843
31.0, 3905.9896953093644, 0.0, 0.0, 0.0, 0.0, 0.0, 0.0, 0.0, -0.016, -0.05, 0.992, 192.0, 255.0, 128.0, 254.0, 112.0, 31.0, 0.0, 0.0, 0.0, 0.0, 1.715161940843626E9, 0.0, 2024-05-08 12:52:20.843
32.0, 3928.9896403538755, 0.0, 0.0, 0.0, 0.0, 0.0, 0.0, 0.0, -0.016, -0.05, 0.992, 192.0, 0.0, 0.0, 0.0, 0.0, 0.0, 0.0, 0.0, 0.0, 0.0, 1.7151619408436491E9, 0.0, 2024-05-08 12:52:20.843
33.0, 4044.123476043162, 0.0, 0.0, 0.0, 0.0, 0.0, 0.0, 0.0, -0.016, -0.05, 0.992, 192.0, 0.0, 0.0, 0.0, 0.0, 0.0, 0.0, 0.0, 0.0, 0.0, 1.71516194084367E9, 0.0, 2024-05-08 12:52:20.843
34.0, 5033.769313546338, 0.0, 0.0, 0.0, 0.0, 0.0, 0.0, 0.0, -0.016, -0.05, 0.992, 192.0, 0.0, 0.0, 0.0, 0.0, 0.0, 0.0, 0.0, 0.0, 0.0, 1.7151619408436916E9, 0.0, 2024-05-08 12:52:20.843
35.0, 6273.844095926774, 0.0, 0.0, 0.0, 0.0, 0.0, 0.0, 0.0, -0.016, -0.05, 0.992, 192.0, 0.0, 0.0, 0.0, 0.0, 0.0, 0.0, 0.0, 0.0, 0.0, 1.7151619408437183E9, 0.0, 2024-05-08 12:52:20.843
36.0, 6723.04710424508, 0.0, 0.0, 0.0, 0.0, 0.0, 0.0, 0.0, -0.016, -0.05, 0.992, 192.0, 0.0, 0.0, 0.0, 0.0, 0.0, 0.0, 0.0, 0.0, 0.0, 1.7151619408437433E9, 0.0, 2024-05-08 12:52:20.843
37.0, 6480.262455971534, 0.0, 0.0, 0.0, 0.0, 0.0, 0.0, 0.0, -0.016, -0.05, 0.992, 192.0, 0.0, 0.0, 0.0, 0.0, 0.0, 0.0, 0.0, 0.0, 0.0, 1.7151619408437846E9, 0.0, 2024-05-08 12:52:20.843
38.0, 6710.619534327929, 0.0, 0.0, 0.0, 0.0, 0.0, 0.0, 0.0, -0.016, -0.05, 0.992, 192.0, 0.0, 0.0, 0.0, 0.0, 0.0, 0.0, 0.0, 0.0, 0.0, 1.7151619408438075E9, 0.0, 2024-05-08 12:52:20.843
39.0, 7786.520753684134, 0.0, 0.0, 0.0, 0.0, 0.0, 0.0, 0.0, -0.016, -0.05, 0.992, 192.0, 0.0, 0.0, 0.0, 0.0, 0.0, 0.0, 0.0, 0.0, 0.0, 1.715161940843829E9, 0.0, 2024-05-08 12:52:20.843
40.0, 8811.057664282043, 0.0, 0.0, 0.0, 0.0, 0.0, 0.0, 0.0, -0.016, -0.05, 0.992, 192.0, 0.0, 0.0, 0.0, 0.0, 0.0, 0.0, 0.0, 0.0, 0.0, 1.7151619408438501E9, 0.0, 2024-05-08 12:52:20.843
41.0, 8987.100003612042, 0.0, 0.0, 0.0, 0.0, 0.0, 0.0, 0.0, -0.018000000000000002, -0.054, 0.988, 192.0, 255.0, 112.0, 254.0, 80.0, 30.0, 224.0, 0.0, 0.0, 0.0, 1.7151619408438773E9, 0.0, 2024-05-08 12:52:20.843
42.0, 8392.767118545427, 0.0, 0.0, 0.0, 0.0, 0.0, 0.0, 0.0, -0.018000000000000002, -0.054, 0.988, 192.0, 0.0, 0.0, 0.0, 0.0, 0.0, 0.0, 0.0, 0.0, 0.0, 1.715161940843905E9, 0.0, 2024-05-08 12:52:20.843
43.0, 8047.1420940330145, 0.0, 0.0, 0.0, 0.0, 0.0, 0.0, 0.0, -0.018000000000000002, -0.054, 0.988, 192.0, 0.0, 0.0, 0.0, 0.0, 0.0, 0.0, 0.0, 0.0, 0.0, 1.715161940843928E9, 0.0, 2024-05-08 12:52:20.843
44.0, 8504.078805932857, 0.0, 0.0, 0.0, 0.0, 0.0, 0.0, 0.0, -0.018000000000000002, -0.054, 0.988, 192.0, 0.0, 0.0, 0.0, 0.0, 0.0, 0.0, 0.0, 0.0, 0.0, 1.7151619408439505E9, 0.0, 2024-05-08 12:52:20.843
45.0, 8995.347797316052, 0.0, 0.0, 0.0, 0.0, 0.0, 0.0, 0.0, -0.018000000000000002, -0.054, 0.988, 192.0, 0.0, 0.0, 0.0, 0.0, 0.0, 0.0, 0.0, 0.0, 0.0, 1.7151619408439724E9, 0.0, 2024-05-08 12:52:20.843
46.0, 8473.233398584533, 0.0, 0.0, 0.0, 0.0, 0.0, 0.0, 0.0, -0.018000000000000002, -0.054, 0.988, 192.0, 0.0, 0.0, 0.0, 0.0, 0.0, 0.0, 0.0, 0.0, 0.0, 1.7151619408440037E9, 0.0, 2024-05-08 12:52:20.844
47.0, 7216.19364216252, 0.0, 0.0, 0.0, 0.0, 0.0, 0.0, 0.0, -0.018000000000000002, -0.054, 0.988, 192.0, 0.0, 0.0, 0.0, 0.0, 0.0, 0.0, 0.0, 0.0, 0.0, 1.7151619408440263E9, 0.0, 2024-05-08 12:52:20.844
48.0, 6330.662230332164, 0.0, 0.0, 0.0, 0.0, 0.0, 0.0, 0.0, -0.018000000000000002, -0.054, 0.988, 192.0, 0.0, 0.0, 0.0, 0.0, 0.0, 0.0, 0.0, 0.0, 0.0, 1.7151619408440492E9, 0.0, 2024-05-08 12:52:20.844
49.0, 6350.599986386298, 0.0, 0.0, 0.0, 0.0, 0.0, 0.0, 0.0, -0.018000000000000002, -0.054, 0.988, 192.0, 0.0, 0.0, 0.0, 0.0, 0.0, 0.0, 0.0, 0.0, 0.0, 1.7151619408440711E9, 0.0, 2024-05-08 12:52:20.844
50.0, 6609.9025738123155, 0.0, 0.0, 0.0, 0.0, 0.0, 0.0, 0.0, -0.018000000000000002, -0.054, 0.988, 192.0, 0.0, 0.0, 0.0, 0.0, 0.0, 0.0, 0.0, 0.0, 0.0, 1.715161940844094E9, 0.0, 2024-05-08 12:52:20.844
51.0, 6106.675399145532, 0.0, 0.0, 0.0, 0.0, 0.0, 0.0, 0.0, -0.012, -0.056, 0.992, 192.0, 255.0, 160.0, 254.0, 64.0, 31.0, 0.0, 0.0, 0.0, 0.0, 1.7151619408441155E9, 0.0, 2024-05-08 12:52:20.844
52.0, 4860.073907384147, 0.0, 0.0, 0.0, 0.0, 0.0, 0.0, 0.0, -0.012, -0.056, 0.992, 192.0, 0.0, 0.0, 0.0, 0.0, 0.0, 0.0, 0.0, 0.0, 0.0, 1.7151619408441472E9, 0.0, 2024-05-08 12:52:20.844
53.0, 3844.4776945683593, 0.0, 0.0, 0.0, 0.0, 0.0, 0.0, 0.0, -0.012, -0.056, 0.992, 192.0, 0.0, 0.0, 0.0, 0.0, 0.0, 0.0, 0.0, 0.0, 0.0, 1.71516194084417E9, 0.0, 2024-05-08 12:52:20.844
54.0, 3695.995056151755, 0.0, 0.0, 0.0, 0.0, 0.0, 0.0, 0.0, -0.012, -0.056, 0.992, 192.0, 0.0, 0.0, 0.0, 0.0, 0.0, 0.0, 0.0, 0.0, 0.0, 1.7151619408441951E9, 0.0, 2024-05-08 12:52:20.844
55.0, 3909.4542156999373, 0.0, 0.0, 0.0, 0.0, 0.0, 0.0, 0.0, -0.012, -0.056, 0.992, 192.0, 0.0, 0.0, 0.0, 0.0, 0.0, 0.0, 0.0, 0.0, 0.0, 1.7151619408442345E9, 0.0, 2024-05-08 12:52:20.844
56.0, 3320.6645632582386, 0.0, 0.0, 0.0, 0.0, 0.0, 0.0, 0.0, -0.012, -0.056, 0.992, 192.0, 0.0, 0.0, 0.0, 0.0, 0.0, 0.0, 0.0, 0.0, 0.0, 1.7151619408442564E9, 0.0, 2024-05-08 12:52:20.844
57.0, 1696.0056657797893, 0.0, 0.0, 0.0, 0.0, 0.0, 0.0, 0.0, -0.012, -0.056, 0.992, 192.0, 0.0, 0.0, 0.0, 0.0, 0.0, 0.0, 0.0, 0.0, 0.0, 1.7151619408442779E9, 0.0, 2024-05-08 12:52:20.844
58.0, 502.3331048885709, 0.0, 0.0, 0.0, 0.0, 0.0, 0.0, 0.0, -0.012, -0.056, 0.992, 192.0, 0.0, 0.0, 0.0, 0.0, 0.0, 0.0, 0.0, 0.0, 0.0, 1.715161940844303E9, 0.0, 2024-05-08 12:52:20.844
59.0, 367.8650102454436, 0.0, 0.0, 0.0, 0.0, 0.0, 0.0, 0.0, -0.012, -0.056, 0.992, 192.0, 0.0, 0.0, 0.0, 0.0, 0.0, 0.0, 0.0, 0.0, 0.0, 1.7151619408443253E9, 0.0, 2024-05-08 12:52:20.844
60.0, 756.1148114341273, 0.0, 0.0, 0.0, 0.0, 0.0, 0.0, 0.0, -0.012, -0.056, 0.992, 192.0, 0.0, 0.0, 0.0, 0.0, 0.0, 0.0, 0.0, 0.0, 0.0, 1.7151619408443468E9, 0.0, 2024-05-08 12:52:20.844
61.0, 542.6556518859448, 0.0, 0.0, 0.0, 0.0, 0.0, 0.0, 0.0, -0.014, -0.054, 0.988, 192.0, 255.0, 144.0, 254.0, 80.0, 30.0, 224.0, 0.0, 0.0, 0.0, 1.7151619408443751E9, 0.0, 2024-05-08 12:52:20.844
62.0, -407.49465316470304, 0.0, 0.0, 0.0, 0.0, 0.0, 0.0, 0.0, -0.014, -0.054, 0.988, 192.0, 0.0, 0.0, 0.0, 0.0, 0.0, 0.0, 0.0, 0.0, 0.0, 1.7151619408443983E9, 0.0, 2024-05-08 12:52:20.844
63.0, -1242.4664190371536, 0.0, 0.0, 0.0, 0.0, 0.0, 0.0, 0.0, -0.014, -0.054, 0.988, 192.0, 0.0, 0.0, 0.0, 0.0, 0.0, 0.0, 0.0, 0.0, 0.0, 1.715161940844426E9, 0.0, 2024-05-08 12:52:20.844
64.0, -1241.4382387922096, 0.0, 0.0, 0.0, 0.0, 0.0, 0.0, 0.0, -0.014, -0.054, 0.988, 192.0, 0.0, 0.0, 0.0, 0.0, 0.0, 0.0, 0.0, 0.0, 0.0, 1.7151619408444464E9, 0.0, 2024-05-08 12:52:20.844
65.0, -1094.6990364431188, 0.0, 0.0, 0.0, 0.0, 0.0, 0.0, 0.0, -0.014, -0.054, 0.988, 192.0, 0.0, 0.0, 0.0, 0.0, 0.0, 0.0, 0.0, 0.0, 0.0, 1.715161940844468E9, 0.0, 2024-05-08 12:52:20.844
66.0, -1616.0981793520666, 0.0, 0.0, 0.0, 0.0, 0.0, 0.0, 0.0, -0.014, -0.054, 0.988, 192.0, 0.0, 0.0, 0.0, 0.0, 0.0, 0.0, 0.0, 0.0, 0.0, 1.7151619408444905E9, 0.0, 2024-05-08 12:52:20.844
67.0, -2755.4560012168886, 0.0, 0.0, 0.0, 0.0, 0.0, 0.0, 0.0, -0.014, -0.054, 0.988, 192.0, 0.0, 0.0, 0.0, 0.0, 0.0, 0.0, 0.0, 0.0, 0.0, 1.7151619408445187E9, 0.0, 2024-05-08 12:52:20.844
68.0, -3635.377125188962, 0.0, 0.0, 0.0, 0.0, 0.0, 0.0, 0.0, -0.014, -0.054, 0.988, 192.0, 0.0, 0.0, 0.0, 0.0, 0.0, 0.0, 0.0, 0.0, 0.0, 1.7151619408445363E9, 0.0, 2024-05-08 12:52:20.844
69.0, -3686.607323480526, 0.0, 0.0, 0.0, 0.0, 0.0, 0.0, 0.0, -0.014, -0.054, 0.988, 192.0, 0.0, 0.0, 0.0, 0.0, 0.0, 0.0, 0.0, 0.0, 0.0, 1.7151619408445537E9, 0.0, 2024-05-08 12:52:20.844
70.0, -3567.047842389088, 0.0, 0.0, 0.0, 0.0, 0.0, 0.0, 0.0, -0.014, -0.054, 0.988, 192.0, 0.0, 0.0, 0.0, 0.0, 0.0, 0.0, 0.0, 0.0, 0.0, 1.7151619408445709E9, 0.0, 2024-05-08 12:52:20.844
71.0, -4090.615104510201, 0.0, 0.0, 0.0, 0.0, 0.0, 0.0, 0.0, -0.01, -0.054, 0.99, 192.0, 255.0, 176.0, 254.0, 80.0, 30.0, 240.0, 0.0, 0.0, 0.0, 1.7151619408445876E9, 0.0, 2024-05-08 12:52:20.844
72.0, -5260.103077900777, 0.0, 0.0, 0.0, 0.0, 0.0, 0.0, 0.0, -0.01, -0.054, 0.99, 192.0, 0.0, 0.0, 0.0, 0.0, 0.0, 0.0, 0.0, 0.0, 0.0, 1.7151619408446212E9, 0.0, 2024-05-08 12:52:20.844
73.0, -6111.123396292138, 0.0, 0.0, 0.0, 0.0, 0.0, 0.0, 0.0, -0.01, -0.054, 0.99, 192.0, 0.0, 0.0, 0.0, 0.0, 0.0, 0.0, 0.0, 0.0, 0.0, 1.7151619408446388E9, 0.0, 2024-05-08 12:52:20.844
74.0, -6142.237024573926, 0.0, 0.0, 0.0, 0.0, 0.0, 0.0, 0.0, -0.01, -0.054, 0.99, 192.0, 0.0, 0.0, 0.0, 0.0, 0.0, 0.0, 0.0, 0.0, 0.0, 1.7151619408446562E9, 0.0, 2024-05-08 12:52:20.844
75.0, -5933.427027872447, 0.0, 0.0, 0.0, 0.0, 0.0, 0.0, 0.0, -0.01, -0.054, 0.99, 192.0, 0.0, 0.0, 0.0, 0.0, 0.0, 0.0, 0.0, 0.0, 0.0, 1.7151619408446732E9, 0.0, 2024-05-08 12:52:20.844
76.0, -6257.907302130139, 0.0, 0.0, 0.0, 0.0, 0.0, 0.0, 0.0, -0.01, -0.054, 0.99, 192.0, 0.0, 0.0, 0.0, 0.0, 0.0, 0.0, 0.0, 0.0, 0.0, 1.71516194084469E9, 0.0, 2024-05-08 12:52:20.844
77.0, -7190.533839527827, 0.0, 0.0, 0.0, 0.0, 0.0, 0.0, 0.0, -0.01, -0.054, 0.99, 192.0, 0.0, 0.0, 0.0, 0.0, 0.0, 0.0, 0.0, 0.0, 0.0, 1.7151619408447073E9, 0.0, 2024-05-08 12:52:20.844
78.0, -7865.735336033743, 0.0, 0.0, 0.0, 0.0, 0.0, 0.0, 0.0, -0.01, -0.054, 0.99, 192.0, 0.0, 0.0, 0.0, 0.0, 0.0, 0.0, 0.0, 0.0, 0.0, 1.7151619408447287E9, 0.0, 2024-05-08 12:52:20.844
79.0, -7797.338998000503, 0.0, 0.0, 0.0, 0.0, 0.0, 0.0, 0.0, -0.01, -0.054, 0.99, 192.0, 0.0, 0.0, 0.0, 0.0, 0.0, 0.0, 0.0, 0.0, 0.0, 1.7151619408447623E9, 0.0, 2024-05-08 12:52:20.844
80.0, -7432.983211634542, 0.0, 0.0, 0.0, 0.0, 0.0, 0.0, 0.0, -0.01, -0.054, 0.99, 192.0, 0.0, 0.0, 0.0, 0.0, 0.0, 0.0, 0.0, 0.0, 0.0, 1.71516194084479E9, 0.0, 2024-05-08 12:52:20.844
81.0, -7572.905131924765, 0.0, 0.0, 0.0, 0.0, 0.0, 0.0, 0.0, -0.006, -0.052000000000000005, 0.996, 192.0, 255.0, 208.0, 254.0, 96.0, 31.0, 32.0, 0.0, 0.0, 0.0, 1.7151619408448107E9, 0.0, 2024-05-08 12:52:20.844
82.0, -8331.590393971252, 0.0, 0.0, 0.0, 0.0, 0.0, 0.0, 0.0, -0.006, -0.052000000000000005, 0.996, 192.0, 0.0, 0.0, 0.0, 0.0, 0.0, 0.0, 0.0, 0.0, 0.0, 1.7151619408448324E9, 0.0, 2024-05-08 12:52:20.844
83.0, -8900.643456058915, 0.0, 0.0, 0.0, 0.0, 0.0, 0.0, 0.0, -0.006, -0.052000000000000005, 0.996, 192.0, 0.0, 0.0, 0.0, 0.0, 0.0, 0.0, 0.0, 0.0, 0.0, 1.7151619408448584E9, 0.0, 2024-05-08 12:52:20.844
84.0, -8880.504534304682, 0.0, 0.0, 0.0, 0.0, 0.0, 0.0, 0.0, -0.006, -0.052000000000000005, 0.996, 192.0, 0.0, 0.0, 0.0, 0.0, 0.0, 0.0, 0.0, 0.0, 0.0, 1.7151619408448792E9, 0.0, 2024-05-08 12:52:20.844
85.0, -8680.031738285033, 0.0, 0.0, 0.0, 0.0, 0.0, 0.0, 0.0, -0.006, -0.052000000000000005, 0.996, 192.0, 0.0, 0.0, 0.0, 0.0, 0.0, 0.0, 0.0, 0.0, 0.0, 1.7151619408449063E9, 0.0, 2024-05-08 12:52:20.844
86.0, -8866.713507975759, 0.0, 0.0, 0.0, 0.0, 0.0, 0.0, 0.0, -0.006, -0.052000000000000005, 0.996, 192.0, 0.0, 0.0, 0.0, 0.0, 0.0, 0.0, 0.0, 0.0, 0.0, 1.7151619408449292E9, 0.0, 2024-05-08 12:52:20.844
87.0, -9461.404020953658, 0.0, 0.0, 0.0, 0.0, 0.0, 0.0, 0.0, -0.006, -0.052000000000000005, 0.996, 192.0, 0.0, 0.0, 0.0, 0.0, 0.0, 0.0, 0.0, 0.0, 0.0, 1.7151619408449516E9, 0.0, 2024-05-08 12:52:20.844
88.0, -9829.80547306603, 0.0, 0.0, 0.0, 0.0, 0.0, 0.0, 0.0, -0.006, -0.052000000000000005, 0.996, 192.0, 0.0, 0.0, 0.0, 0.0, 0.0, 0.0, 0.0, 0.0, 0.0, 1.7151619408449757E9, 0.0, 2024-05-08 12:52:20.844
89.0, -9663.91082571874, 0.0, 0.0, 0.0, 0.0, 0.0, 0.0, 0.0, -0.006, -0.052000000000000005, 0.996, 192.0, 0.0, 0.0, 0.0, 0.0, 0.0, 0.0, 0.0, 0.0, 0.0, 1.7151619408449988E9, 0.0, 2024-05-08 12:52:20.844
90.0, -9326.958278054986, 0.0, 0.0, 0.0, 0.0, 0.0, 0.0, 0.0, -0.006, -0.052000000000000005, 0.996, 192.0, 0.0, 0.0, 0.0, 0.0, 0.0, 0.0, 0.0, 0.0, 0.0, 1.71516194084504E9, 0.0, 2024-05-08 12:52:20.845
91.0, -9352.796894645322, 0.0, 0.0, 0.0, 0.0, 0.0, 0.0, 0.0, -0.01, -0.056, 0.992, 192.0, 255.0, 176.0, 254.0, 64.0, 31.0, 0.0, 0.0, 0.0, 0.0, 1.7151619408450637E9, 0.0, 2024-05-08 12:52:20.845
92.0, -9796.300208127524, 0.0, 0.0, 0.0, 0.0, 0.0, 0.0, 0.0, -0.01, -0.056, 0.992, 192.0, 0.0, 0.0, 0.0, 0.0, 0.0, 0.0, 0.0, 0.0, 0.0, 1.7151619408450892E9, 0.0, 2024-05-08 12:52:20.845
93.0, -9998.65055068142, 0.0, 0.0, 0.0, 0.0, 0.0, 0.0, 0.0, -0.01, -0.056, 0.992, 192.0, 0.0, 0.0, 0.0, 0.0, 0.0, 0.0, 0.0, 0.0, 0.0, 1.7151619408451135E9, 0.0, 2024-05-08 12:52:20.845
94.0, -9528.928640953141, 0.0, 0.0, 0.0, 0.0, 0.0, 0.0, 0.0, -0.01, -0.056, 0.992, 192.0, 0.0, 0.0, 0.0, 0.0, 0.0, 0.0, 0.0, 0.0, 0.0, 1.7151619408451376E9, 0.0, 2024-05-08 12:52:20.845
95.0, -8916.490842877727, 0.0, 0.0, 0.0, 0.0, 0.0, 0.0, 0.0, -0.01, -0.056, 0.992, 192.0, 0.0, 0.0, 0.0, 0.0, 0.0, 0.0, 0.0, 0.0, 0.0, 1.7151619408451617E9, 0.0, 2024-05-08 12:52:20.845
96.0, -8823.932269088302, 0.0, 0.0, 0.0, 0.0, 0.0, 0.0, 0.0, -0.01, -0.056, 0.992, 192.0, 0.0, 0.0, 0.0, 0.0, 0.0, 0.0, 0.0, 0.0, 0.0, 1.7151619408451836E9, 0.0, 2024-05-08 12:52:20.845
97.0, -9140.611784531091, 0.0, 0.0, 0.0, 0.0, 0.0, 0.0, 0.0, -0.01, -0.056, 0.992, 192.0, 0.0, 0.0, 0.0, 0.0, 0.0, 0.0, 0.0, 0.0, 0.0, 1.715161940845205E9, 0.0, 2024-05-08 12:52:20.845
98.0, -9172.641834335547, 0.0, 0.0, 0.0, 0.0, 0.0, 0.0, 0.0, -0.01, -0.056, 0.992, 192.0, 0.0, 0.0, 0.0, 0.0, 0.0, 0.0, 0.0, 0.0, 0.0, 1.71516194084523E9, 0.0, 2024-05-08 12:52:20.845
99.0, -8703.746939152115, 0.0, 0.0, 0.0, 0.0, 0.0, 0.0, 0.0, -0.01, -0.056, 0.992, 192.0, 0.0, 0.0, 0.0, 0.0, 0.0, 0.0, 0.0, 0.0, 0.0, 1.7151619408452551E9, 0.0, 2024-05-08 12:52:20.845
100.0, -8120.433464101967, 0.0, 0.0, 0.0, 0.0, 0.0, 0.0, 0.0, -0.01, -0.056, 0.992, 192.0, 0.0, 0.0, 0.0, 0.0, 0.0, 0.0, 0.0, 0.0, 0.0, 1.7151619408452775E9, 0.0, 2024-05-08 12:52:20.845
101.0, -7937.015049101717, 0.0, 0.0, 0.0, 0.0, 0.0, 0.0, 0.0, -0.012, -0.058, 0.992, 192.0, 255.0, 160.0, 254.0, 48.0, 31.0, 0.0, 0.0, 0.0, 0.0, 1.715161940845301E9, 0.0, 2024-05-08 12:52:20.845
102.0, -8184.962950344438, 0.0, 0.0, 0.0, 0.0, 0.0, 0.0, 0.0, -0.012, -0.058, 0.992, 192.0, 0.0, 0.0, 0.0, 0.0, 0.0, 0.0, 0.0, 0.0, 0.0, 1.715161940845327E9, 0.0, 2024-05-08 12:52:20.845
103.0, -8333.155016083123, 0.0, 0.0, 0.0, 0.0, 0.0, 0.0, 0.0, -0.012, -0.058, 0.992, 192.0, 0.0, 0.0, 0.0, 0.0, 0.0, 0.0, 0.0, 0.0, 0.0, 1.7151619408453505E9, 0.0, 2024-05-08 12:52:20.845
104.0, -8022.733989087819, 0.0, 0.0, 0.0, 0.0, 0.0, 0.0, 0.0, -0.012, -0.058, 0.992, 192.0, 0.0, 0.0, 0.0, 0.0, 0.0, 0.0, 0.0, 0.0, 0.0, 1.7151619408453739E9, 0.0, 2024-05-08 12:52:20.845
105.0, -7444.315546073383, 0.0, 0.0, 0.0, 0.0, 0.0, 0.0, 0.0, -0.012, -0.058, 0.992, 192.0, 0.0, 0.0, 0.0, 0.0, 0.0, 0.0, 0.0, 0.0, 0.0, 1.7151619408453944E9, 0.0, 2024-05-08 12:52:20.845
106.0, -7091.448556357451, 0.0, 0.0, 0.0, 0.0, 0.0, 0.0, 0.0, -0.012, -0.058, 0.992, 192.0, 0.0, 0.0, 0.0, 0.0, 0.0, 0.0, 0.0, 0.0, 0.0, 1.7151619413222432E9, 0.0, 2024-05-08 12:52:21.322
107.0, -7088.229905155887, 0.0, 0.0, 0.0, 0.0, 0.0, 0.0, 0.0, -0.012, -0.058, 0.992, 192.0, 0.0, 0.0, 0.0, 0.0, 0.0, 0.0, 0.0, 0.0, 0.0, 1.7151619413224063E9, 0.0, 2024-05-08 12:52:21.322
108.0, -6968.111630453066, 0.0, 0.0, 0.0, 0.0, 0.0, 0.0, 0.0, -0.012, -0.058, 0.992, 192.0, 0.0, 0.0, 0.0, 0.0, 0.0, 0.0, 0.0, 0.0, 0.0, 1.7151619413224804E9, 0.0, 2024-05-08 12:52:21.322
109.0, -6463.386888907778, 0.0, 0.0, 0.0, 0.0, 0.0, 0.0, 0.0, -0.012, -0.058, 0.992, 192.0, 0.0, 0.0, 0.0, 0.0, 0.0, 0.0, 0.0, 0.0, 0.0, 1.7151619413225553E9, 0.0, 2024-05-08 12:52:21.322
110.0, -5839.326183715604, 0.0, 0.0, 0.0, 0.0, 0.0, 0.0, 0.0, -0.012, -0.058, 0.992, 192.0, 0.0, 0.0, 0.0, 0.0, 0.0, 0.0, 0.0, 0.0, 0.0, 1.7151619413226418E9, 0.0, 2024-05-08 12:52:21.322
111.0, -5536.370639368372, 0.0, 0.0, 0.0, 0.0, 0.0, 0.0, 0.0, -0.014, -0.054, 0.992, 192.0, 255.0, 144.0, 254.0, 80.0, 31.0, 0.0, 0.0, 0.0, 0.0, 1.715161941322692E9, 0.0, 2024-05-08 12:52:21.322
112.0, -5633.310155071039, 0.0, 0.0, 0.0, 0.0, 0.0, 0.0, 0.0, -0.014, -0.054, 0.992, 192.0, 0.0, 0.0, 0.0, 0.0, 0.0, 0.0, 0.0, 0.0, 0.0, 1.7151619413227403E9, 0.0, 2024-05-08 12:52:21.322
113.0, -5647.861140711444, 0.0, 0.0, 0.0, 0.0, 0.0, 0.0, 0.0, -0.014, -0.054, 0.992, 192.0, 0.0, 0.0, 0.0, 0.0, 0.0, 0.0, 0.0, 0.0, 0.0, 1.7151619413227851E9, 0.0, 2024-05-08 12:52:21.322
114.0, -5285.986397980023, 0.0, 0.0, 0.0, 0.0, 0.0, 0.0, 0.0, -0.014, -0.054, 0.992, 192.0, 0.0, 0.0, 0.0, 0.0, 0.0, 0.0, 0.0, 0.0, 0.0, 1.7151619413228304E9, 0.0, 2024-05-08 12:52:21.322
115.0, -4819.080808053113, 0.0, 0.0, 0.0, 0.0, 0.0, 0.0, 0.0, -0.014, -0.054, 0.992, 192.0, 0.0, 0.0, 0.0, 0.0, 0.0, 0.0, 0.0, 0.0, 0.0, 1.7151619413228753E9, 0.0, 2024-05-08 12:52:21.322
116.0, -4727.058676130614, 0.0, 0.0, 0.0, 0.0, 0.0, 0.0, 0.0, -0.014, -0.054, 0.992, 192.0, 0.0, 0.0, 0.0, 0.0, 0.0, 0.0, 0.0, 0.0, 0.0, 1.7151619413229203E9, 0.0, 2024-05-08 12:52:21.322
117.0, -5079.366872235164, 0.0, 0.0, 0.0, 0.0, 0.0, 0.0, 0.0, -0.014, -0.054, 0.992, 192.0, 0.0, 0.0, 0.0, 0.0, 0.0, 0.0, 0.0, 0.0, 0.0, 1.7151619413229673E9, 0.0, 2024-05-08 12:52:21.322
118.0, -5106.568945237273, 0.0, 0.0, 0.0, 0.0, 0.0, 0.0, 0.0, -0.014, -0.054, 0.992, 192.0, 0.0, 0.0, 0.0, 0.0, 0.0, 0.0, 0.0, 0.0, 0.0, 1.7151619413230124E9, 0.0, 2024-05-08 12:52:21.323
119.0, -4603.252363592668, 0.0, 0.0, 0.0, 0.0, 0.0, 0.0, 0.0, -0.014, -0.054, 0.992, 192.0, 0.0, 0.0, 0.0, 0.0, 0.0, 0.0, 0.0, 0.0, 0.0, 1.7151619413230572E9, 0.0, 2024-05-08 12:52:21.323
120.0, -4050.650185424112, 0.0, 0.0, 0.0, 0.0, 0.0, 0.0, 0.0, -0.014, -0.054, 0.992, 192.0, 0.0, 0.0, 0.0, 0.0, 0.0, 0.0, 0.0, 0.0, 0.0, 1.7151619413231027E9, 0.0, 2024-05-08 12:52:21.323
121.0, -3967.7475652393778, 0.0, 0.0, 0.0, 0.0, 0.0, 0.0, 0.0, -0.01, -0.056, 0.992, 192.0, 255.0, 176.0, 254.0, 64.0, 31.0, 0.0, 0.0, 0.0, 0.0, 1.7151619413231475E9, 0.0, 2024-05-08 12:52:21.323
122.0, -4366.234465388592, 0.0, 0.0, 0.0, 0.0, 0.0, 0.0, 0.0, -0.01, -0.056, 0.992, 192.0, 0.0, 0.0, 0.0, 0.0, 0.0, 0.0, 0.0, 0.0, 0.0, 1.7151619413231952E9, 0.0, 2024-05-08 12:52:21.323
123.0, -4452.892178641818, 0.0, 0.0, 0.0, 0.0, 0.0, 0.0, 0.0, -0.01, -0.056, 0.992, 192.0, 0.0, 0.0, 0.0, 0.0, 0.0, 0.0, 0.0, 0.0, 0.0, 1.7151619413232422E9, 0.0, 2024-05-08 12:52:21.323
124.0, -4033.5734526602573, 0.0, 0.0, 0.0, 0.0, 0.0, 0.0, 0.0, -0.01, -0.056, 0.992, 192.0, 0.0, 0.0, 0.0, 0.0, 0.0, 0.0, 0.0, 0.0, 0.0, 1.715161941323313E9, 0.0, 2024-05-08 12:52:21.323
125.0, -3594.8534124914904, 0.0, 0.0, 0.0, 0.0, 0.0, 0.0, 0.0, -0.01, -0.056, 0.992, 192.0, 0.0, 0.0, 0.0, 0.0, 0.0, 0.0, 0.0, 0.0, 0.0, 1.7151619413233588E9, 0.0, 2024-05-08 12:52:21.323
126.0, -3465.2803498840753, 0.0, 0.0, 0.0, 0.0, 0.0, 0.0, 0.0, -0.01, -0.056, 0.992, 192.0, 0.0, 0.0, 0.0, 0.0, 0.0, 0.0, 0.0, 0.0, 0.0, 1.715161941323404E9, 0.0, 2024-05-08 12:52:21.323
127.0, -3703.5499457776486, 0.0, 0.0, 0.0, 0.0, 0.0, 0.0, 0.0, -0.01, -0.056, 0.992, 192.0, 0.0, 0.0, 0.0, 0.0, 0.0, 0.0, 0.0, 0.0, 0.0, 1.7151619413234491E9, 0.0, 2024-05-08 12:52:21.323
128.0, -3876.552447861725, 0.0, 0.0, 0.0, 0.0, 0.0, 0.0, 0.0, -0.01, -0.056, 0.992, 192.0, 0.0, 0.0, 0.0, 0.0, 0.0, 0.0, 0.0, 0.0, 0.0, 1.715161941323495E9, 0.0, 2024-05-08 12:52:21.323
129.0, -3756.7023940923686, 0.0, 0.0, 0.0, 0.0, 0.0, 0.0, 0.0, -0.01, -0.056, 0.992, 192.0, 0.0, 0.0, 0.0, 0.0, 0.0, 0.0, 0.0, 0.0, 0.0, 1.7151619413235404E9, 0.0, 2024-05-08 12:52:21.323
130.0, -3513.7836353520916, 0.0, 0.0, 0.0, 0.0, 0.0, 0.0, 0.0, -0.01, -0.056, 0.992, 192.0, 0.0, 0.0, 0.0, 0.0, 0.0, 0.0, 0.0, 0.0, 0.0, 1.7151619413235855E9, 0.0, 2024-05-08 12:52:21.323
131.0, -3437.9888699041453, 0.0, 0.0, 0.0, 0.0, 0.0, 0.0, 0.0, -0.008, -0.058, 0.992, 192.0, 255.0, 192.0, 254.0, 48.0, 31.0, 0.0, 0.0, 0.0, 0.0, 1.7151619413236368E9, 0.0, 2024-05-08 12:52:21.323
132.0, -3660.589892934548, 0.0, 0.0, 0.0, 0.0, 0.0, 0.0, 0.0, -0.008, -0.058, 0.992, 192.0, 0.0, 0.0, 0.0, 0.0, 0.0, 0.0, 0.0, 0.0, 0.0, 1.715161941323685E9, 0.0, 2024-05-08 12:52:21.323
133.0, -3703.661704499925, 0.0, 0.0, 0.0, 0.0, 0.0, 0.0, 0.0, -0.008, -0.058, 0.992, 192.0, 0.0, 0.0, 0.0, 0.0, 0.0, 0.0, 0.0, 0.0, 0.0, 1.71516194132373E9, 0.0, 2024-05-08 12:52:21.323
134.0, -3333.4721128311294, 0.0, 0.0, 0.0, 0.0, 0.0, 0.0, 0.0, -0.008, -0.058, 0.992, 192.0, 0.0, 0.0, 0.0, 0.0, 0.0, 0.0, 0.0, 0.0, 0.0, 1.7151619413237753E9, 0.0, 2024-05-08 12:52:21.323
135.0, -2884.559677190742, 0.0, 0.0, 0.0, 0.0, 0.0, 0.0, 0.0, -0.008, -0.058, 0.992, 192.0, 0.0, 0.0, 0.0, 0.0, 0.0, 0.0, 0.0, 0.0, 0.0, 1.71516194132382E9, 0.0, 2024-05-08 12:52:21.323
136.0, -2740.63679464302, 0.0, 0.0, 0.0, 0.0, 0.0, 0.0, 0.0, -0.008, -0.058, 0.992, 192.0, 0.0, 0.0, 0.0, 0.0, 0.0, 0.0, 0.0, 0.0, 0.0, 1.7151619413238666E9, 0.0, 2024-05-08 12:52:21.323
137.0, -2960.1309251941357, 0.0, 0.0, 0.0, 0.0, 0.0, 0.0, 0.0, -0.008, -0.058, 0.992, 192.0, 0.0, 0.0, 0.0, 0.0, 0.0, 0.0, 0.0, 0.0, 0.0, 1.7151619413239117E9, 0.0, 2024-05-08 12:52:21.323
138.0, -3182.262561590977, 0.0, 0.0, 0.0, 0.0, 0.0, 0.0, 0.0, -0.008, -0.058, 0.992, 192.0, 0.0, 0.0, 0.0, 0.0, 0.0, 0.0, 0.0, 0.0, 0.0, 1.715161941323948E9, 0.0, 2024-05-08 12:52:21.323
139.0, -3215.8572335073036, 0.0, 0.0, 0.0, 0.0, 0.0, 0.0, 0.0, -0.008, -0.058, 0.992, 192.0, 0.0, 0.0, 0.0, 0.0, 0.0, 0.0, 0.0, 0.0, 0.0, 1.7151619413239655E9, 0.0, 2024-05-08 12:52:21.323
140.0, -3047.973280903492, 0.0, 0.0, 0.0, 0.0, 0.0, 0.0, 0.0, -0.008, -0.058, 0.992, 192.0, 0.0, 0.0, 0.0, 0.0, 0.0, 0.0, 0.0, 0.0, 0.0, 1.7151619413239832E9, 0.0, 2024-05-08 12:52:21.323
141.0, -2997.2571727344007, 0.0, 0.0, 0.0, 0.0, 0.0, 0.0, 0.0, -0.008, -0.058, 0.988, 192.0, 255.0, 192.0, 254.0, 48.0, 30.0, 224.0, 0.0, 0.0, 0.0, 1.7151619413240006E9, 0.0, 2024-05-08 12:52:21.324
142.0, -3271.066042311912, 0.0, 0.0, 0.0, 0.0, 0.0, 0.0, 0.0, -0.008, -0.058, 0.988, 192.0, 0.0, 0.0, 0.0, 0.0, 0.0, 0.0, 0.0, 0.0, 0.0, 1.715161941324028E9, 0.0, 2024-05-08 12:52:21.324
143.0, -3557.1907230842976, 0.0, 0.0, 0.0, 0.0, 0.0, 0.0, 0.0, -0.008, -0.058, 0.988, 192.0, 0.0, 0.0, 0.0, 0.0, 0.0, 0.0, 0.0, 0.0, 0.0, 1.7151619413240454E9, 0.0, 2024-05-08 12:52:21.324
144.0, -3593.311142124074, 0.0, 0.0, 0.0, 0.0, 0.0, 0.0, 0.0, -0.008, -0.058, 0.988, 192.0, 0.0, 0.0, 0.0, 0.0, 0.0, 0.0, 0.0, 0.0, 0.0, 1.7151619413240628E9, 0.0, 2024-05-08 12:52:21.324
145.0, -3430.612794233894, 0.0, 0.0, 0.0, 0.0, 0.0, 0.0, 0.0, -0.008, -0.058, 0.988, 192.0, 0.0, 0.0, 0.0, 0.0, 0.0, 0.0, 0.0, 0.0, 0.0, 1.71516194132408E9, 0.0, 2024-05-08 12:52:21.324
146.0, -3465.0344806950666, 0.0, 0.0, 0.0, 0.0, 0.0, 0.0, 0.0, -0.008, -0.058, 0.988, 192.0, 0.0, 0.0, 0.0, 0.0, 0.0, 0.0, 0.0, 0.0, 0.0, 1.7151619413240976E9, 0.0, 2024-05-08 12:52:21.324
147.0, -3848.366898103583, 0.0, 0.0, 0.0, 0.0, 0.0, 0.0, 0.0, -0.008, -0.058, 0.988, 192.0, 0.0, 0.0, 0.0, 0.0, 0.0, 0.0, 0.0, 0.0, 0.0, 1.715161941324115E9, 0.0, 2024-05-08 12:52:21.324
148.0, -4152.350622695759, 0.0, 0.0, 0.0, 0.0, 0.0, 0.0, 0.0, -0.008, -0.058, 0.988, 192.0, 0.0, 0.0, 0.0, 0.0, 0.0, 0.0, 0.0, 0.0, 0.0, 1.7151619413241327E9, 0.0, 2024-05-08 12:52:21.324
149.0, -4052.1254005581623, 0.0, 0.0, 0.0, 0.0, 0.0, 0.0, 0.0, -0.008, -0.058, 0.988, 192.0, 0.0, 0.0, 0.0, 0.0, 0.0, 0.0, 0.0, 0.0, 0.0, 1.71516194132415E9, 0.0, 2024-05-08 12:52:21.324
150.0, -3806.5467842277035, 0.0, 0.0, 0.0, 0.0, 0.0, 0.0, 0.0, -0.008, -0.058, 0.988, 192.0, 0.0, 0.0, 0.0, 0.0, 0.0, 0.0, 0.0, 0.0, 0.0, 1.7151619413241673E9, 0.0, 2024-05-08 12:52:21.324
151.0, -3789.425347974938, 0.0, 0.0, 0.0, 0.0, 0.0, 0.0, 0.0, -0.008, -0.058, 0.988, 192.0, 255.0, 192.0, 254.0, 48.0, 30.0, 224.0, 0.0, 0.0, 0.0, 1.7151619413241844E9, 0.0, 2024-05-08 12:52:21.324
152.0, -4033.059362537785, 0.0, 0.0, 0.0, 0.0, 0.0, 0.0, 0.0, -0.008, -0.058, 0.988, 192.0, 0.0, 0.0, 0.0, 0.0, 0.0, 0.0, 0.0, 0.0, 0.0, 1.7151619413242023E9, 0.0, 2024-05-08 12:52:21.324
153.0, -4104.7637587504105, 0.0, 0.0, 0.0, 0.0, 0.0, 0.0, 0.0, -0.008, -0.058, 0.988, 192.0, 0.0, 0.0, 0.0, 0.0, 0.0, 0.0, 0.0, 0.0, 0.0, 1.7151619413242202E9, 0.0, 2024-05-08 12:52:21.324
154.0, -3877.2230001953844, 0.0, 0.0, 0.0, 0.0, 0.0, 0.0, 0.0, -0.008, -0.058, 0.988, 192.0, 0.0, 0.0, 0.0, 0.0, 0.0, 0.0, 0.0, 0.0, 0.0, 1.715161941324238E9, 0.0, 2024-05-08 12:52:21.324
155.0, -3539.6222519424264, 0.0, 0.0, 0.0, 0.0, 0.0, 0.0, 0.0, -0.008, -0.058, 0.988, 192.0, 0.0, 0.0, 0.0, 0.0, 0.0, 0.0, 0.0, 0.0, 0.0, 1.7151619413242552E9, 0.0, 2024-05-08 12:52:21.324
156.0, -3379.6284651313385, 0.0, 0.0, 0.0, 0.0, 0.0, 0.0, 0.0, -0.008, -0.058, 0.988, 192.0, 0.0, 0.0, 0.0, 0.0, 0.0, 0.0, 0.0, 0.0, 0.0, 1.7151619413242724E9, 0.0, 2024-05-08 12:52:21.324
157.0, -3534.5931094399825, 0.0, 0.0, 0.0, 0.0, 0.0, 0.0, 0.0, -0.008, -0.058, 0.988, 192.0, 0.0, 0.0, 0.0, 0.0, 0.0, 0.0, 0.0, 0.0, 0.0, 1.7151619413242896E9, 0.0, 2024-05-08 12:52:21.324
158.0, -3631.912604798389, 0.0, 0.0, 0.0, 0.0, 0.0, 0.0, 0.0, -0.008, -0.058, 0.988, 192.0, 0.0, 0.0, 0.0, 0.0, 0.0, 0.0, 0.0, 0.0, 0.0, 1.7151619413243065E9, 0.0, 2024-05-08 12:52:21.324
159.0, -3408.3728085008634, 0.0, 0.0, 0.0, 0.0, 0.0, 0.0, 0.0, -0.008, -0.058, 0.988, 192.0, 0.0, 0.0, 0.0, 0.0, 0.0, 0.0, 0.0, 0.0, 0.0, 1.715161941324332E9, 0.0, 2024-05-08 12:52:21.324
160.0, -3052.3765745611877, 0.0, 0.0, 0.0, 0.0, 0.0, 0.0, 0.0, -0.008, -0.058, 0.988, 192.0, 0.0, 0.0, 0.0, 0.0, 0.0, 0.0, 0.0, 0.0, 0.0, 1.7151619413243492E9, 0.0, 2024-05-08 12:52:21.324
161.0, -2937.019221427348, 0.0, 0.0, 0.0, 0.0, 0.0, 0.0, 0.0, -0.008, -0.054, 0.992, 192.0, 255.0, 192.0, 254.0, 80.0, 31.0, 0.0, 0.0, 0.0, 0.0, 1.7151619413243687E9, 0.0, 2024-05-08 12:52:21.324
162.0, -3194.3772070857535, 0.0, 0.0, 0.0, 0.0, 0.0, 0.0, 0.0, -0.008, -0.054, 0.992, 192.0, 0.0, 0.0, 0.0, 0.0, 0.0, 0.0, 0.0, 0.0, 0.0, 1.7151619413243864E9, 0.0, 2024-05-08 12:52:21.324
163.0, -3405.7129509106817, 0.0, 0.0, 0.0, 0.0, 0.0, 0.0, 0.0, -0.008, -0.054, 0.992, 192.0, 0.0, 0.0, 0.0, 0.0, 0.0, 0.0, 0.0, 0.0, 0.0, 1.7151619413244038E9, 0.0, 2024-05-08 12:52:21.324
164.0, -3295.6306094682946, 0.0, 0.0, 0.0, 0.0, 0.0, 0.0, 0.0, -0.008, -0.054, 0.992, 192.0, 0.0, 0.0, 0.0, 0.0, 0.0, 0.0, 0.0, 0.0, 0.0, 1.715161941324421E9, 0.0, 2024-05-08 12:52:21.324
165.0, -3050.946062916048, 0.0, 0.0, 0.0, 0.0, 0.0, 0.0, 0.0, -0.008, -0.054, 0.992, 192.0, 0.0, 0.0, 0.0, 0.0, 0.0, 0.0, 0.0, 0.0, 0.0, 1.715161941324438E9, 0.0, 2024-05-08 12:52:21.324
166.0, -3056.6457577521514, 0.0, 0.0, 0.0, 0.0, 0.0, 0.0, 0.0, -0.008, -0.054, 0.992, 192.0, 0.0, 0.0, 0.0, 0.0, 0.0, 0.0, 0.0, 0.0, 0.0, 1.7151619413244555E9, 0.0, 2024-05-08 12:52:21.324
167.0, -3466.3308818734745, 0.0, 0.0, 0.0, 0.0, 0.0, 0.0, 0.0, -0.008, -0.054, 0.992, 192.0, 0.0, 0.0, 0.0, 0.0, 0.0, 0.0, 0.0, 0.0, 0.0, 1.7151619413244743E9, 0.0, 2024-05-08 12:52:21.324
168.0, -3814.571060487159, 0.0, 0.0, 0.0, 0.0, 0.0, 0.0, 0.0, -0.008, -0.054, 0.992, 192.0, 0.0, 0.0, 0.0, 0.0, 0.0, 0.0, 0.0, 0.0, 0.0, 1.7151619413244915E9, 0.0, 2024-05-08 12:52:21.324
169.0, -3829.1220461275634, 0.0, 0.0, 0.0, 0.0, 0.0, 0.0, 0.0, -0.008, -0.054, 0.992, 192.0, 0.0, 0.0, 0.0, 0.0, 0.0, 0.0, 0.0, 0.0, 0.0, 1.7151619413245087E9, 0.0, 2024-05-08 12:52:21.324
170.0, -3667.027195337677, 0.0, 0.0, 0.0, 0.0, 0.0, 0.0, 0.0, -0.008, -0.054, 0.992, 192.0, 0.0, 0.0, 0.0, 0.0, 0.0, 0.0, 0.0, 0.0, 0.0, 1.715161941324526E9, 0.0, 2024-05-08 12:52:21.324
171.0, -3620.6920290818252, 0.0, 0.0, 0.0, 0.0, 0.0, 0.0, 0.0, -0.01, -0.058, 0.992, 192.0, 255.0, 176.0, 254.0, 48.0, 31.0, 0.0, 0.0, 0.0, 0.0, 1.7151619413245432E9, 0.0, 2024-05-08 12:52:21.324
172.0, -3951.587253998191, 0.0, 0.0, 0.0, 0.0, 0.0, 0.0, 0.0, -0.01, -0.058, 0.992, 192.0, 0.0, 0.0, 0.0, 0.0, 0.0, 0.0, 0.0, 0.0, 0.0, 1.715161941324561E9, 0.0, 2024-05-08 12:52:21.324
173.0, -4221.149292129194, 0.0, 0.0, 0.0, 0.0, 0.0, 0.0, 0.0, -0.01, -0.058, 0.992, 192.0, 0.0, 0.0, 0.0, 0.0, 0.0, 0.0, 0.0, 0.0, 0.0, 1.71516194132458E9, 0.0, 2024-05-08 12:52:21.324
174.0, -4149.333137194292, 0.0, 0.0, 0.0, 0.0, 0.0, 0.0, 0.0, -0.01, -0.058, 0.992, 192.0, 0.0, 0.0, 0.0, 0.0, 0.0, 0.0, 0.0, 0.0, 0.0, 1.7151619413245971E9, 0.0, 2024-05-08 12:52:21.324
175.0, -3868.1258402020744, 0.0, 0.0, 0.0, 0.0, 0.0, 0.0, 0.0, -0.01, -0.058, 0.992, 192.0, 0.0, 0.0, 0.0, 0.0, 0.0, 0.0, 0.0, 0.0, 0.0, 1.7151619413246188E9, 0.0, 2024-05-08 12:52:21.324
176.0, -3830.9995926618094, 0.0, 0.0, 0.0, 0.0, 0.0, 0.0, 0.0, -0.01, -0.058, 0.992, 192.0, 0.0, 0.0, 0.0, 0.0, 0.0, 0.0, 0.0, 0.0, 0.0, 1.7151619413246362E9, 0.0, 2024-05-08 12:52:21.324
177.0, -4204.184318087616, 0.0, 0.0, 0.0, 0.0, 0.0, 0.0, 0.0, -0.01, -0.058, 0.992, 192.0, 0.0, 0.0, 0.0, 0.0, 0.0, 0.0, 0.0, 0.0, 0.0, 1.7151619413246613E9, 0.0, 2024-05-08 12:52:21.324
178.0, -4463.330443302446, 0.0, 0.0, 0.0, 0.0, 0.0, 0.0, 0.0, -0.01, -0.058, 0.992, 192.0, 0.0, 0.0, 0.0, 0.0, 0.0, 0.0, 0.0, 0.0, 0.0, 1.7151619413246787E9, 0.0, 2024-05-08 12:52:21.324
179.0, -4292.853688341819, 0.0, 0.0, 0.0, 0.0, 0.0, 0.0, 0.0, -0.01, -0.058, 0.992, 192.0, 0.0, 0.0, 0.0, 0.0, 0.0, 0.0, 0.0, 0.0, 0.0, 1.7151619413246963E9, 0.0, 2024-05-08 12:52:21.324
180.0, -3920.8759571165992, 0.0, 0.0, 0.0, 0.0, 0.0, 0.0, 0.0, -0.01, -0.058, 0.992, 192.0, 0.0, 0.0, 0.0, 0.0, 0.0, 0.0, 0.0, 0.0, 0.0, 1.715161941324714E9, 0.0, 2024-05-08 12:52:21.324
181.0, -3836.364011331083, 0.0, 0.0, 0.0, 0.0, 0.0, 0.0, 0.0, -0.006, -0.058, 0.998, 192.0, 255.0, 208.0, 254.0, 48.0, 31.0, 48.0, 0.0, 0.0, 0.0, 1.715161941324731E9, 0.0, 2024-05-08 12:52:21.324
182.0, -4261.538894359934, 0.0, 0.0, 0.0, 0.0, 0.0, 0.0, 0.0, -0.006, -0.058, 0.998, 192.0, 0.0, 0.0, 0.0, 0.0, 0.0, 0.0, 0.0, 0.0, 0.0, 1.7151619413247495E9, 0.0, 2024-05-08 12:52:21.324
183.0, -4612.774206730629, 0.0, 0.0, 0.0, 0.0, 0.0, 0.0, 0.0, -0.006, -0.058, 0.998, 192.0, 0.0, 0.0, 0.0, 0.0, 0.0, 0.0, 0.0, 0.0, 0.0, 1.7151619413247666E9, 0.0, 2024-05-08 12:52:21.324
184.0, -4348.174255868704, 0.0, 0.0, 0.0, 0.0, 0.0, 0.0, 0.0, -0.006, -0.058, 0.998, 192.0, 0.0, 0.0, 0.0, 0.0, 0.0, 0.0, 0.0, 0.0, 0.0, 1.7151619413247845E9, 0.0, 2024-05-08 12:52:21.324
185.0, -3736.8763967605114, 0.0, 0.0, 0.0, 0.0, 0.0, 0.0, 0.0, -0.006, -0.058, 0.998, 192.0, 0.0, 0.0, 0.0, 0.0, 0.0, 0.0, 0.0, 0.0, 0.0, 1.7151619413248017E9, 0.0, 2024-05-08 12:52:21.324
186.0, -3463.7604312611143, 0.0, 0.0, 0.0, 0.0, 0.0, 0.0, 0.0, -0.006, -0.058, 0.998, 192.0, 0.0, 0.0, 0.0, 0.0, 0.0, 0.0, 0.0, 0.0, 0.0, 1.7151619413248208E9, 0.0, 2024-05-08 12:52:21.324
187.0, -3770.0687372766424, 0.0, 0.0, 0.0, 0.0, 0.0, 0.0, 0.0, -0.006, -0.058, 0.998, 192.0, 0.0, 0.0, 0.0, 0.0, 0.0, 0.0, 0.0, 0.0, 0.0, 1.7151619413248384E9, 0.0, 2024-05-08 12:52:21.324
188.0, -3980.1527834120734, 0.0, 0.0, 0.0, 0.0, 0.0, 0.0, 0.0, -0.006, -0.058, 0.998, 192.0, 0.0, 0.0, 0.0, 0.0, 0.0, 0.0, 0.0, 0.0, 0.0, 1.7151619413248556E9, 0.0, 2024-05-08 12:52:21.324
189.0, -3625.2964884396183, 0.0, 0.0, 0.0, 0.0, 0.0, 0.0, 0.0, -0.006, -0.058, 0.998, 192.0, 0.0, 0.0, 0.0, 0.0, 0.0, 0.0, 0.0, 0.0, 0.0, 1.7151619413248727E9, 0.0, 2024-05-08 12:52:21.324
190.0, -2972.692605578018, 0.0, 0.0, 0.0, 0.0, 0.0, 0.0, 0.0, -0.006, -0.058, 0.998, 192.0, 0.0, 0.0, 0.0, 0.0, 0.0, 0.0, 0.0, 0.0, 0.0, 1.7151619413248904E9, 0.0, 2024-05-08 12:52:21.324
191.0, -2692.2676196417356, 0.0, 0.0, 0.0, 0.0, 0.0, 0.0, 0.0, -0.004, -0.06, 0.994, 192.0, 255.0, 224.0, 254.0, 32.0, 31.0, 16.0, 0.0, 0.0, 0.0, 1.7151619413249075E9, 0.0, 2024-05-08 12:52:21.324
192.0, -2984.2261057169567, 0.0, 0.0, 0.0, 0.0, 0.0, 0.0, 0.0, -0.004, -0.06, 0.994, 192.0, 0.0, 0.0, 0.0, 0.0, 0.0, 0.0, 0.0, 0.0, 0.0, 1.715161941324928E9, 0.0, 2024-05-08 12:52:21.324
193.0, -3153.115886821257, 0.0, 0.0, 0.0, 0.0, 0.0, 0.0, 0.0, -0.004, -0.06, 0.994, 192.0, 0.0, 0.0, 0.0, 0.0, 0.0, 0.0, 0.0, 0.0, 0.0, 1.7151619413249452E9, 0.0, 2024-05-08 12:52:21.324
194.0, -2711.4007128954786, 0.0, 0.0, 0.0, 0.0, 0.0, 0.0, 0.0, -0.004, -0.06, 0.994, 192.0, 0.0, 0.0, 0.0, 0.0, 0.0, 0.0, 0.0, 0.0, 0.0, 1.715161941324973E9, 0.0, 2024-05-08 12:52:21.324
195.0, -1927.0556482142983, 0.0, 0.0, 0.0, 0.0, 0.0, 0.0, 0.0, -0.004, -0.06, 0.994, 192.0, 0.0, 0.0, 0.0, 0.0, 0.0, 0.0, 0.0, 0.0, 0.0, 1.7151619413249905E9, 0.0, 2024-05-08 12:52:21.324
196.0, -1358.8072489270269, 0.0, 0.0, 0.0, 0.0, 0.0, 0.0, 0.0, -0.004, -0.06, 0.994, 192.0, 0.0, 0.0, 0.0, 0.0, 0.0, 0.0, 0.0, 0.0, 0.0, 1.7151619413250077E9, 0.0, 2024-05-08 12:52:21.325
197.0, -1501.0761023850564, 0.0, 0.0, 0.0, 0.0, 0.0, 0.0, 0.0, -0.004, -0.06, 0.994, 192.0, 0.0, 0.0, 0.0, 0.0, 0.0, 0.0, 0.0, 0.0, 0.0, 1.7151619413250248E9, 0.0, 2024-05-08 12:52:21.325
198.0, -2070.3079784283614, 0.0, 0.0, 0.0, 0.0, 0.0, 0.0, 0.0, -0.004, -0.06, 0.994, 192.0, 0.0, 0.0, 0.0, 0.0, 0.0, 0.0, 0.0, 0.0, 0.0, 1.715161941325044E9, 0.0, 2024-05-08 12:52:21.325
199.0, -2301.0897399294067, 0.0, 0.0, 0.0, 0.0, 0.0, 0.0, 0.0, -0.004, -0.06, 0.994, 192.0, 0.0, 0.0, 0.0, 0.0, 0.0, 0.0, 0.0, 0.0, 0.0, 1.715161941325061E9, 0.0, 2024-05-08 12:52:21.325
200.0, -2246.640890436279, 0.0, 0.0, 0.0, 0.0, 0.0, 0.0, 0.0, -0.004, -0.06, 0.994, 192.0, 0.0, 0.0, 0.0, 0.0, 0.0, 0.0, 0.0, 0.0, 0.0, 1.7151619413250787E9, 0.0, 2024-05-08 12:52:21.325
201.0, -2679.8847532134955, 0.0, 0.0, 0.0, 0.0, 0.0, 0.0, 0.0, -0.006, -0.062, 0.994, 192.0, 255.0, 208.0, 254.0, 16.0, 31.0, 16.0, 0.0, 0.0, 0.0, 1.715161941325096E9, 0.0, 2024-05-08 12:52:21.325
202.0, -3265.3886992202642, 0.0, 0.0, 0.0, 0.0, 0.0, 0.0, 0.0, -0.006, -0.062, 0.994, 192.0, 0.0, 0.0, 0.0, 0.0, 0.0, 0.0, 0.0, 0.0, 0.0, 1.7151619413251138E9, 0.0, 2024-05-08 12:52:21.325
203.0, -3455.736155001659, 0.0, 0.0, 0.0, 0.0, 0.0, 0.0, 0.0, -0.006, -0.062, 0.994, 192.0, 0.0, 0.0, 0.0, 0.0, 0.0, 0.0, 0.0, 0.0, 0.0, 1.715161941325131E9, 0.0, 2024-05-08 12:52:21.325
204.0, -3059.7079467425283, 0.0, 0.0, 0.0, 0.0, 0.0, 0.0, 0.0, -0.006, -0.062, 0.994, 192.0, 0.0, 0.0, 0.0, 0.0, 0.0, 0.0, 0.0, 0.0, 0.0, 1.7151619413251488E9, 0.0, 2024-05-08 12:52:21.325
205.0, -2237.6778409097005, 0.0, 0.0, 0.0, 0.0, 0.0, 0.0, 0.0, -0.006, -0.062, 0.994, 192.0, 0.0, 0.0, 0.0, 0.0, 0.0, 0.0, 0.0, 0.0, 0.0, 1.715161941325166E9, 0.0, 2024-05-08 12:52:21.325
206.0, -1709.0367327972333, 0.0, 0.0, 0.0, 0.0, 0.0, 0.0, 0.0, -0.006, -0.062, 0.994, 192.0, 0.0, 0.0, 0.0, 0.0, 0.0, 0.0, 0.0, 0.0, 0.0, 1.7151619413251832E9, 0.0, 2024-05-08 12:52:21.325
207.0, -2048.4479723510713, 0.0, 0.0, 0.0, 0.0, 0.0, 0.0, 0.0, -0.006, -0.062, 0.994, 192.0, 0.0, 0.0, 0.0, 0.0, 0.0, 0.0, 0.0, 0.0, 0.0, 1.7151619413252E9, 0.0, 2024-05-08 12:52:21.325
208.0, -2390.630828217367, 0.0, 0.0, 0.0, 0.0, 0.0, 0.0, 0.0, -0.006, -0.062, 0.994, 192.0, 0.0, 0.0, 0.0, 0.0, 0.0, 0.0, 0.0, 0.0, 0.0, 1.7151619413252175E9, 0.0, 2024-05-08 12:52:21.325
209.0, -2151.7130317345895, 0.0, 0.0, 0.0, 0.0, 0.0, 0.0, 0.0, -0.006, -0.062, 0.994, 192.0, 0.0, 0.0, 0.0, 0.0, 0.0, 0.0, 0.0, 0.0, 0.0, 1.7151619413252344E9, 0.0, 2024-05-08 12:52:21.325
210.0, -1590.4160249729186, 0.0, 0.0, 0.0, 0.0, 0.0, 0.0, 0.0, -0.006, -0.062, 0.994, 192.0, 0.0, 0.0, 0.0, 0.0, 0.0, 0.0, 0.0, 0.0, 0.0, 1.7151619413252516E9, 0.0, 2024-05-08 12:52:21.325
211.0, -1380.287275348577, 0.0, 0.0, 0.0, 0.0, 0.0, 0.0, 0.0, -0.008, -0.062, 0.992, 192.0, 255.0, 192.0, 254.0, 16.0, 31.0, 0.0, 0.0, 0.0, 0.0, 1.7151619413252783E9, 0.0, 2024-05-08 12:52:21.325
212.0, -1839.6379756495926, 0.0, 0.0, 0.0, 0.0, 0.0, 0.0, 0.0, -0.008, -0.062, 0.992, 192.0, 0.0, 0.0, 0.0, 0.0, 0.0, 0.0, 0.0, 0.0, 0.0, 1.7151619413252962E9, 0.0, 2024-05-08 12:52:21.325
213.0, -2187.4311193741705, 0.0, 0.0, 0.0, 0.0, 0.0, 0.0, 0.0, -0.008, -0.062, 0.992, 192.0, 0.0, 0.0, 0.0, 0.0, 0.0, 0.0, 0.0, 0.0, 0.0, 1.7151619413253133E9, 0.0, 2024-05-08 12:52:21.325
214.0, -1912.974049207455, 0.0, 0.0, 0.0, 0.0, 0.0, 0.0, 0.0, -0.008, -0.062, 0.992, 192.0, 0.0, 0.0, 0.0, 0.0, 0.0, 0.0, 0.0, 0.0, 0.0, 1.7151619413253307E9, 0.0, 2024-05-08 12:52:21.325
215.0, -1324.5867281659519, 0.0, 0.0, 0.0, 0.0, 0.0, 0.0, 0.0, -0.008, -0.062, 0.992, 192.0, 0.0, 0.0, 0.0, 0.0, 0.0, 0.0, 0.0, 0.0, 0.0, 1.715161941325348E9, 0.0, 2024-05-08 12:52:21.325
216.0, -1133.5463683064424, 0.0, 0.0, 0.0, 0.0, 0.0, 0.0, 0.0, -0.008, -0.062, 0.992, 192.0, 0.0, 0.0, 0.0, 0.0, 0.0, 0.0, 0.0, 0.0, 0.0, 1.7151619413253653E9, 0.0, 2024-05-08 12:52:21.325
217.0, -1685.0756627411442, 0.0, 0.0, 0.0, 0.0, 0.0, 0.0, 0.0, -0.008, -0.062, 0.992, 192.0, 0.0, 0.0, 0.0, 0.0, 0.0, 0.0, 0.0, 0.0, 0.0, 1.715161941325384E9, 0.0, 2024-05-08 12:52:21.325
218.0, -2185.95590424012, 0.0, 0.0, 0.0, 0.0, 0.0, 0.0, 0.0, -0.008, -0.062, 0.992, 192.0, 0.0, 0.0, 0.0, 0.0, 0.0, 0.0, 0.0, 0.0, 0.0, 1.7151619413254013E9, 0.0, 2024-05-08 12:52:21.325
219.0, -2097.867679341755, 0.0, 0.0, 0.0, 0.0, 0.0, 0.0, 0.0, -0.008, -0.062, 0.992, 192.0, 0.0, 0.0, 0.0, 0.0, 0.0, 0.0, 0.0, 0.0, 0.0, 1.7151619413254185E9, 0.0, 2024-05-08 12:52:21.325
220.0, -1860.9391881155002, 0.0, 0.0, 0.0, 0.0, 0.0, 0.0, 0.0, -0.008, -0.062, 0.992, 192.0, 0.0, 0.0, 0.0, 0.0, 0.0, 0.0, 0.0, 0.0, 0.0, 1.7151619413254356E9, 0.0, 2024-05-08 12:52:21.325
221.0, -2012.0146288889205, 0.0, 0.0, 0.0, 0.0, 0.0, 0.0, 0.0, -0.008, -0.06, 0.99, 192.0, 255.0, 192.0, 254.0, 32.0, 30.0, 240.0, 0.0, 0.0, 0.0, 1.7151619413254528E9, 0.0, 2024-05-08 12:52:21.325
222.0, -2537.5264927776448, 0.0, 0.0, 0.0, 0.0, 0.0, 0.0, 0.0, -0.008, -0.06, 0.99, 192.0, 0.0, 0.0, 0.0, 0.0, 0.0, 0.0, 0.0, 0.0, 0.0, 1.7151619413254707E9, 0.0, 2024-05-08 12:52:21.325
223.0, -2862.4985054133545, 0.0, 0.0, 0.0, 0.0, 0.0, 0.0, 0.0, -0.008, -0.06, 0.99, 192.0, 0.0, 0.0, 0.0, 0.0, 0.0, 0.0, 0.0, 0.0, 0.0, 1.7151619413254895E9, 0.0, 2024-05-08 12:52:21.325
224.0, -2654.2025988343476, 0.0, 0.0, 0.0, 0.0, 0.0, 0.0, 0.0, -0.008, -0.06, 0.99, 192.0, 0.0, 0.0, 0.0, 0.0, 0.0, 0.0, 0.0, 0.0, 0.0, 1.7151619413255072E9, 0.0, 2024-05-08 12:52:21.325
225.0, -2087.608228636769, 0.0, 0.0, 0.0, 0.0, 0.0, 0.0, 0.0, -0.008, -0.06, 0.99, 192.0, 0.0, 0.0, 0.0, 0.0, 0.0, 0.0, 0.0, 0.0, 0.0, 1.7151619413255243E9, 0.0, 2024-05-08 12:52:21.325
226.0, -1789.6818267919812, 0.0, 0.0, 0.0, 0.0, 0.0, 0.0, 0.0, -0.008, -0.06, 0.99, 192.0, 0.0, 0.0, 0.0, 0.0, 0.0, 0.0, 0.0, 0.0, 0.0, 1.7151619418033001E9, 0.0, 2024-05-08 12:52:21.803
227.0, -2119.906499374688, 0.0, 0.0, 0.0, 0.0, 0.0, 0.0, 0.0, -0.008, -0.06, 0.99, 192.0, 0.0, 0.0, 0.0, 0.0, 0.0, 0.0, 0.0, 0.0, 0.0, 1.7151619418033843E9, 0.0, 2024-05-08 12:52:21.803
228.0, -2353.146952765817, 0.0, 0.0, 0.0, 0.0, 0.0, 0.0, 0.0, -0.008, -0.06, 0.99, 192.0, 0.0, 0.0, 0.0, 0.0, 0.0, 0.0, 0.0, 0.0, 0.0, 1.7151619418034425E9, 0.0, 2024-05-08 12:52:21.803
229.0, -2047.3303851283058, 0.0, 0.0, 0.0, 0.0, 0.0, 0.0, 0.0, -0.008, -0.06, 0.99, 192.0, 0.0, 0.0, 0.0, 0.0, 0.0, 0.0, 0.0, 0.0, 0.0, 1.715161941803538E9, 0.0, 2024-05-08 12:52:21.803
230.0, -1367.2785600755883, 0.0, 0.0, 0.0, 0.0, 0.0, 0.0, 0.0, -0.008, -0.06, 0.99, 192.0, 0.0, 0.0, 0.0, 0.0, 0.0, 0.0, 0.0, 0.0, 0.0, 1.715161941803588E9, 0.0, 2024-05-08 12:52:21.803
231.0, -1067.943998330116, 0.0, 0.0, 0.0, 0.0, 0.0, 0.0, 0.0, -0.004, -0.06, 0.994, 192.0, 255.0, 224.0, 254.0, 32.0, 31.0, 16.0, 0.0, 0.0, 0.0, 1.7151619418036575E9, 0.0, 2024-05-08 12:52:21.803
232.0, -1602.4189117454187, 0.0, 0.0, 0.0, 0.0, 0.0, 0.0, 0.0, -0.004, -0.06, 0.994, 192.0, 0.0, 0.0, 0.0, 0.0, 0.0, 0.0, 0.0, 0.0, 0.0, 1.7151619418037152E9, 0.0, 2024-05-08 12:52:21.803
233.0, -2139.508979261992, 0.0, 0.0, 0.0, 0.0, 0.0, 0.0, 0.0, -0.004, -0.06, 0.994, 192.0, 0.0, 0.0, 0.0, 0.0, 0.0, 0.0, 0.0, 0.0, 0.0, 1.7151619418037703E9, 0.0, 2024-05-08 12:52:21.803
234.0, -2048.4479723510713, 0.0, 0.0, 0.0, 0.0, 0.0, 0.0, 0.0, -0.004, -0.06, 0.994, 192.0, 0.0, 0.0, 0.0, 0.0, 0.0, 0.0, 0.0, 0.0, 0.0, 1.7151619418038323E9, 0.0, 2024-05-08 12:52:21.803
235.0, -1544.8408180285476, 0.0, 0.0, 0.0, 0.0, 0.0, 0.0, 0.0, -0.004, -0.06, 0.994, 192.0, 0.0, 0.0, 0.0, 0.0, 0.0, 0.0, 0.0, 0.0, 0.0, 1.7151619418038998E9, 0.0, 2024-05-08 12:52:21.803
236.0, -1393.8100807440378, 0.0, 0.0, 0.0, 0.0, 0.0, 0.0, 0.0, -0.004, -0.06, 0.994, 192.0, 0.0, 0.0, 0.0, 0.0, 0.0, 0.0, 0.0, 0.0, 0.0, 1.7151619418039389E9, 0.0, 2024-05-08 12:52:21.803
237.0, -2071.157344717663, 0.0, 0.0, 0.0, 0.0, 0.0, 0.0, 0.0, -0.004, -0.06, 0.994, 192.0, 0.0, 0.0, 0.0, 0.0, 0.0, 0.0, 0.0, 0.0, 0.0, 1.7151619418039756E9, 0.0, 2024-05-08 12:52:21.803
238.0, -2825.998106717838, 0.0, 0.0, 0.0, 0.0, 0.0, 0.0, 0.0, -0.004, -0.06, 0.994, 192.0, 0.0, 0.0, 0.0, 0.0, 0.0, 0.0, 0.0, 0.0, 0.0, 1.715161941804012E9, 0.0, 2024-05-08 12:52:21.804
239.0, -2753.1984750269025, 0.0, 0.0, 0.0, 0.0, 0.0, 0.0, 0.0, -0.004, -0.06, 0.994, 192.0, 0.0, 0.0, 0.0, 0.0, 0.0, 0.0, 0.0, 0.0, 0.0, 1.7151619418040485E9, 0.0, 2024-05-08 12:52:21.804
240.0, -1988.0088553439207, 0.0, 0.0, 0.0, 0.0, 0.0, 0.0, 0.0, -0.004, -0.06, 0.994, 192.0, 0.0, 0.0, 0.0, 0.0, 0.0, 0.0, 0.0, 0.0, 0.0, 1.7151619418040853E9, 0.0, 2024-05-08 12:52:21.804
241.0, -1559.6823763468715, 0.0, 0.0, 0.0, 0.0, 0.0, 0.0, 0.0, -0.004, -0.058, 1.002, 192.0, 255.0, 224.0, 254.0, 48.0, 31.0, 80.0, 0.0, 0.0, 0.0, 1.7151619418041215E9, 0.0, 2024-05-08 12:52:21.804
242.0, -2040.289585624884, 0.0, 0.0, 0.0, 0.0, 0.0, 0.0, 0.0, -0.004, -0.058, 1.002, 192.0, 0.0, 0.0, 0.0, 0.0, 0.0, 0.0, 0.0, 0.0, 0.0, 1.7151619418041625E9, 0.0, 2024-05-08 12:52:21.804
243.0, -2538.4429143003126, 0.0, 0.0, 0.0, 0.0, 0.0, 0.0, 0.0, -0.004, -0.058, 1.002, 192.0, 0.0, 0.0, 0.0, 0.0, 0.0, 0.0, 0.0, 0.0, 0.0, 1.7151619418041992E9, 0.0, 2024-05-08 12:52:21.804
244.0, -2419.2857646090706, 0.0, 0.0, 0.0, 0.0, 0.0, 0.0, 0.0, -0.004, -0.058, 1.002, 192.0, 0.0, 0.0, 0.0, 0.0, 0.0, 0.0, 0.0, 0.0, 0.0, 1.715161941804236E9, 0.0, 2024-05-08 12:52:21.804
245.0, -1932.196549439019, 0.0, 0.0, 0.0, 0.0, 0.0, 0.0, 0.0, -0.004, -0.058, 1.002, 192.0, 0.0, 0.0, 0.0, 0.0, 0.0, 0.0, 0.0, 0.0, 0.0, 1.7151619418042727E9, 0.0, 2024-05-08 12:52:21.804
246.0, -1790.6653035480147, 0.0, 0.0, 0.0, 0.0, 0.0, 0.0, 0.0, -0.004, -0.058, 1.002, 192.0, 0.0, 0.0, 0.0, 0.0, 0.0, 0.0, 0.0, 0.0, 0.0, 1.7151619418043427E9, 0.0, 2024-05-08 12:52:21.804
247.0, -2338.2383392141273, 0.0, 0.0, 0.0, 0.0, 0.0, 0.0, 0.0, -0.004, -0.058, 1.002, 192.0, 0.0, 0.0, 0.0, 0.0, 0.0, 0.0, 0.0, 0.0, 0.0, 1.7151619418043797E9, 0.0, 2024-05-08 12:52:21.804
248.0, -2775.729033437852, 0.0, 0.0, 0.0, 0.0, 0.0, 0.0, 0.0, -0.004, -0.058, 1.002, 192.0, 0.0, 0.0, 0.0, 0.0, 0.0, 0.0, 0.0, 0.0, 0.0, 1.7151619418044183E9, 0.0, 2024-05-08 12:52:21.804
249.0, -2535.9171671768627, 0.0, 0.0, 0.0, 0.0, 0.0, 0.0, 0.0, -0.004, -0.058, 1.002, 192.0, 0.0, 0.0, 0.0, 0.0, 0.0, 0.0, 0.0, 0.0, 0.0, 1.7151619418044548E9, 0.0, 2024-05-08 12:52:21.804
250.0, -1869.164630075053, 0.0, 0.0, 0.0, 0.0, 0.0, 0.0, 0.0, -0.004, -0.058, 1.002, 192.0, 0.0, 0.0, 0.0, 0.0, 0.0, 0.0, 0.0, 0.0, 0.0, 1.7151619418044913E9, 0.0, 2024-05-08 12:52:21.804
251.0, -1531.4968265887294, 0.0, 0.0, 0.0, 0.0, 0.0, 0.0, 0.0, -0.01, -0.056, 1.0, 192.0, 255.0, 176.0, 254.0, 64.0, 31.0, 64.0, 0.0, 0.0, 0.0, 1.7151619418045273E9, 0.0, 2024-05-08 12:52:21.804
252.0, -1958.4822009184602, 0.0, 0.0, 0.0, 0.0, 0.0, 0.0, 0.0, -0.01, -0.056, 1.0, 192.0, 0.0, 0.0, 0.0, 0.0, 0.0, 0.0, 0.0, 0.0, 0.0, 1.7151619418045747E9, 0.0, 2024-05-08 12:52:21.804
253.0, -2336.405496168792, 0.0, 0.0, 0.0, 0.0, 0.0, 0.0, 0.0, -0.01, -0.056, 1.0, 192.0, 0.0, 0.0, 0.0, 0.0, 0.0, 0.0, 0.0, 0.0, 0.0, 1.7151619418046358E9, 0.0, 2024-05-08 12:52:21.804
254.0, -2104.662609656168, 0.0, 0.0, 0.0, 0.0, 0.0, 0.0, 0.0, -0.01, -0.056, 1.0, 192.0, 0.0, 0.0, 0.0, 0.0, 0.0, 0.0, 0.0, 0.0, 0.0, 1.7151619418046925E9, 0.0, 2024-05-08 12:52:21.804
255.0, -1496.0469598826123, 0.0, 0.0, 0.0, 0.0, 0.0, 0.0, 0.0, -0.01, -0.056, 1.0, 192.0, 0.0, 0.0, 0.0, 0.0, 0.0, 0.0, 0.0, 0.0, 0.0, 1.715161941804737E9, 0.0, 2024-05-08 12:52:21.804
0.0, -1192.3091044794446, 0.0, 0.0, 0.0, 0.0, 0.0, 0.0, 0.0, -0.01, -0.056, 1.0, 192.0, 0.0, 0.0, 0.0, 0.0, 0.0, 0.0, 0.0, 0.0, 0.0, 1.7151619418047872E9, 0.0, 2024-05-08 12:52:21.804
1.0, -1584.9174958369133, 0.0, 0.0, 0.0, 0.0, 0.0, 0.0, 0.0, -0.01, -0.056, 1.0, 192.0, 0.0, 0.0, 0.0, 0.0, 0.0, 0.0, 0.0, 0.0, 0.0, 1.7151619418048344E9, 0.0, 2024-05-08 12:52:21.804
2.0, -1971.3121022358064, 0.0, 0.0, 0.0, 0.0, 0.0, 0.0, 0.0, -0.01, -0.056, 1.0, 192.0, 0.0, 0.0, 0.0, 0.0, 0.0, 0.0, 0.0, 0.0, 0.0, 1.715161941804856E9, 0.0, 2024-05-08 12:52:21.804
3.0, -1807.6749810785034, 0.0, 0.0, 0.0, 0.0, 0.0, 0.0, 0.0, -0.01, -0.056, 1.0, 192.0, 0.0, 0.0, 0.0, 0.0, 0.0, 0.0, 0.0, 0.0, 0.0, 1.7151619418048768E9, 0.0, 2024-05-08 12:52:21.804
4.0, -1216.6278024468188, 0.0, 0.0, 0.0, 0.0, 0.0, 0.0, 0.0, -0.01, -0.056, 1.0, 192.0, 0.0, 0.0, 0.0, 0.0, 0.0, 0.0, 0.0, 0.0, 0.0, 1.7151619418048968E9, 0.0, 2024-05-08 12:52:21.804
5.0, -902.3846271496567, 0.0, 0.0, 0.0, 0.0, 0.0, 0.0, 0.0, -0.006, -0.058, 0.992, 192.0, 255.0, 208.0, 254.0, 48.0, 31.0, 0.0, 0.0, 0.0, 0.0, 1.7151619418049145E9, 0.0, 2024-05-08 12:52:21.804
6.0, -1307.934678546748, 0.0, 0.0, 0.0, 0.0, 0.0, 0.0, 0.0, -0.006, -0.058, 0.992, 192.0, 0.0, 0.0, 0.0, 0.0, 0.0, 0.0, 0.0, 0.0, 0.0, 1.7151619418049328E9, 0.0, 2024-05-08 12:52:21.804
7.0, -1724.9288231049566, 0.0, 0.0, 0.0, 0.0, 0.0, 0.0, 0.0, -0.006, -0.058, 0.992, 192.0, 0.0, 0.0, 0.0, 0.0, 0.0, 0.0, 0.0, 0.0, 0.0, 1.7151619418049772E9, 0.0, 2024-05-08 12:52:21.804
8.0, -1574.0545480316339, 0.0, 0.0, 0.0, 0.0, 0.0, 0.0, 0.0, -0.006, -0.058, 0.992, 192.0, 0.0, 0.0, 0.0, 0.0, 0.0, 0.0, 0.0, 0.0, 0.0, 1.7151619418049953E9, 0.0, 2024-05-08 12:52:21.804
9.0, -1041.9936230175047, 0.0, 0.0, 0.0, 0.0, 0.0, 0.0, 0.0, -0.006, -0.058, 0.992, 192.0, 0.0, 0.0, 0.0, 0.0, 0.0, 0.0, 0.0, 0.0, 0.0, 1.7151619418050127E9, 0.0, 2024-05-08 12:52:21.805
10.0, -843.9124636545735, 0.0, 0.0, 0.0, 0.0, 0.0, 0.0, 0.0, -0.006, -0.058, 0.992, 192.0, 0.0, 0.0, 0.0, 0.0, 0.0, 0.0, 0.0, 0.0, 0.0, 1.7151619418050308E9, 0.0, 2024-05-08 12:52:21.805
11.0, -1410.6185925744287, 0.0, 0.0, 0.0, 0.0, 0.0, 0.0, 0.0, -0.006, -0.058, 0.992, 192.0, 0.0, 0.0, 0.0, 0.0, 0.0, 0.0, 0.0, 0.0, 0.0, 1.7151619418050504E9, 0.0, 2024-05-08 12:52:21.805
12.0, -1974.3072359928176, 0.0, 0.0, 0.0, 0.0, 0.0, 0.0, 0.0, -0.006, -0.058, 0.992, 192.0, 0.0, 0.0, 0.0, 0.0, 0.0, 0.0, 0.0, 0.0, 0.0, 1.715161941805068E9, 0.0, 2024-05-08 12:52:21.805
13.0, -1887.8283366952346, 0.0, 0.0, 0.0, 0.0, 0.0, 0.0, 0.0, -0.006, -0.058, 0.992, 192.0, 0.0, 0.0, 0.0, 0.0, 0.0, 0.0, 0.0, 0.0, 0.0, 1.715161941805086E9, 0.0, 2024-05-08 12:52:21.805
14.0, -1389.5856010419848, 0.0, 0.0, 0.0, 0.0, 0.0, 0.0, 0.0, -0.006, -0.058, 0.992, 192.0, 0.0, 0.0, 0.0, 0.0, 0.0, 0.0, 0.0, 0.0, 0.0, 1.715161941805104E9, 0.0, 2024-05-08 12:52:21.805
15.0, -1234.1739218442349, 0.0, 0.0, 0.0, 0.0, 0.0, 0.0, 0.0, -0.01, -0.054, 0.988, 192.0, 255.0, 176.0, 254.0, 80.0, 30.0, 224.0, 0.0, 0.0, 0.0, 1.7151619418051217E9, 0.0, 2024-05-08 12:52:21.805
16.0, -1803.271687420808, 0.0, 0.0, 0.0, 0.0, 0.0, 0.0, 0.0, -0.01, -0.054, 0.988, 192.0, 0.0, 0.0, 0.0, 0.0, 0.0, 0.0, 0.0, 0.0, 0.0, 1.7151619418051405E9, 0.0, 2024-05-08 12:52:21.805
17.0, -2375.7669181545875, 0.0, 0.0, 0.0, 0.0, 0.0, 0.0, 0.0, -0.01, -0.054, 0.988, 192.0, 0.0, 0.0, 0.0, 0.0, 0.0, 0.0, 0.0, 0.0, 0.0, 1.71516194180516E9, 0.0, 2024-05-08 12:52:21.805
18.0, -2483.5470299180784, 0.0, 0.0, 0.0, 0.0, 0.0, 0.0, 0.0, -0.01, -0.054, 0.988, 192.0, 0.0, 0.0, 0.0, 0.0, 0.0, 0.0, 0.0, 0.0, 0.0, 1.7151619418051772E9, 0.0, 2024-05-08 12:52:21.805
19.0, -2029.3595825862387, 0.0, 0.0, 0.0, 0.0, 0.0, 0.0, 0.0, -0.01, -0.054, 0.988, 192.0, 0.0, 0.0, 0.0, 0.0, 0.0, 0.0, 0.0, 0.0, 0.0, 1.7151619418051946E9, 0.0, 2024-05-08 12:52:21.805
20.0, -1657.180685660921, 0.0, 0.0, 0.0, 0.0, 0.0, 0.0, 0.0, -0.01, -0.054, 0.988, 192.0, 0.0, 0.0, 0.0, 0.0, 0.0, 0.0, 0.0, 0.0, 0.0, 1.715161941805212E9, 0.0, 2024-05-08 12:52:21.805
21.0, -2058.126277700219, 0.0, 0.0, 0.0, 0.0, 0.0, 0.0, 0.0, -0.01, -0.054, 0.988, 192.0, 0.0, 0.0, 0.0, 0.0, 0.0, 0.0, 0.0, 0.0, 0.0, 1.7151619418052294E9, 0.0, 2024-05-08 12:52:21.805
22.0, -2609.0520750346277, 0.0, 0.0, 0.0, 0.0, 0.0, 0.0, 0.0, -0.01, -0.054, 0.988, 192.0, 0.0, 0.0, 0.0, 0.0, 0.0, 0.0, 0.0, 0.0, 0.0, 1.7151619418052468E9, 0.0, 2024-05-08 12:52:21.805
23.0, -2633.6613456799205, 0.0, 0.0, 0.0, 0.0, 0.0, 0.0, 0.0, -0.01, -0.054, 0.988, 192.0, 0.0, 0.0, 0.0, 0.0, 0.0, 0.0, 0.0, 0.0, 0.0, 1.715161941805268E9, 0.0, 2024-05-08 12:52:21.805
24.0, -2259.247274309072, 0.0, 0.0, 0.0, 0.0, 0.0, 0.0, 0.0, -0.01, -0.054, 0.988, 192.0, 0.0, 0.0, 0.0, 0.0, 0.0, 0.0, 0.0, 0.0, 0.0, 1.7151619418052907E9, 0.0, 2024-05-08 12:52:21.805
25.0, -2045.7434112719789, 0.0, 0.0, 0.0, 0.0, 0.0, 0.0, 0.0, -0.004, -0.056, 0.992, 192.0, 255.0, 224.0, 254.0, 64.0, 31.0, 0.0, 0.0, 0.0, 0.0, 1.7151619418053246E9, 0.0, 2024-05-08 12:52:21.805
26.0, -2407.9981336591404, 0.0, 0.0, 0.0, 0.0, 0.0, 0.0, 0.0, -0.004, -0.056, 0.992, 192.0, 0.0, 0.0, 0.0, 0.0, 0.0, 0.0, 0.0, 0.0, 0.0, 1.7151619418053467E9, 0.0, 2024-05-08 12:52:21.805
27.0, -2780.1323270955477, 0.0, 0.0, 0.0, 0.0, 0.0, 0.0, 0.0, -0.004, -0.056, 0.992, 192.0, 0.0, 0.0, 0.0, 0.0, 0.0, 0.0, 0.0, 0.0, 0.0, 1.715161941805459E9, 0.0, 2024-05-08 12:52:21.805
28.0, -2649.732249943286, 0.0, 0.0, 0.0, 0.0, 0.0, 0.0, 0.0, -0.004, -0.056, 0.992, 192.0, 0.0, 0.0, 0.0, 0.0, 0.0, 0.0, 0.0, 0.0, 0.0, 1.7151619418054798E9, 0.0, 2024-05-08 12:52:21.805
29.0, -2143.152313608207, 0.0, 0.0, 0.0, 0.0, 0.0, 0.0, 0.0, -0.004, -0.056, 0.992, 192.0, 0.0, 0.0, 0.0, 0.0, 0.0, 0.0, 0.0, 0.0, 0.0, 1.7151619418054993E9, 0.0, 2024-05-08 12:52:21.805
30.0, -1820.1919579734754, 0.0, 0.0, 0.0, 0.0, 0.0, 0.0, 0.0, -0.004, -0.056, 0.992, 192.0, 0.0, 0.0, 0.0, 0.0, 0.0, 0.0, 0.0, 0.0, 0.0, 1.7151619418055203E9, 0.0, 2024-05-08 12:52:21.805
31.0, -2038.54614955737, 0.0, 0.0, 0.0, 0.0, 0.0, 0.0, 0.0, -0.004, -0.056, 0.992, 192.0, 0.0, 0.0, 0.0, 0.0, 0.0, 0.0, 0.0, 0.0, 0.0, 1.7151619418055408E9, 0.0, 2024-05-08 12:52:21.805
32.0, -2278.2239053516278, 0.0, 0.0, 0.0, 0.0, 0.0, 0.0, 0.0, -0.004, -0.056, 0.992, 192.0, 0.0, 0.0, 0.0, 0.0, 0.0, 0.0, 0.0, 0.0, 0.0, 1.7151619418055606E9, 0.0, 2024-05-08 12:52:21.805
33.0, -2148.4496770441147, 0.0, 0.0, 0.0, 0.0, 0.0, 0.0, 0.0, -0.004, -0.056, 0.992, 192.0, 0.0, 0.0, 0.0, 0.0, 0.0, 0.0, 0.0, 0.0, 0.0, 1.7151619418055785E9, 0.0, 2024-05-08 12:52:21.805
34.0, -1700.1630902484765, 0.0, 0.0, 0.0, 0.0, 0.0, 0.0, 0.0, -0.004, -0.056, 0.992, 192.0, 0.0, 0.0, 0.0, 0.0, 0.0, 0.0, 0.0, 0.0, 0.0, 1.7151619418056037E9, 0.0, 2024-05-08 12:52:21.805
35.0, -1378.4097288143312, 0.0, 0.0, 0.0, 0.0, 0.0, 0.0, 0.0, -0.008, -0.054, 0.994, 192.0, 255.0, 192.0, 254.0, 80.0, 31.0, 16.0, 0.0, 0.0, 0.0, 1.715161941805629E9, 0.0, 2024-05-08 12:52:21.805
36.0, -1528.4793410872628, 0.0, 0.0, 0.0, 0.0, 0.0, 0.0, 0.0, -0.008, -0.054, 0.994, 192.0, 0.0, 0.0, 0.0, 0.0, 0.0, 0.0, 0.0, 0.0, 0.0, 1.7151619418056588E9, 0.0, 2024-05-08 12:52:21.805
37.0, -1782.0151784438108, 0.0, 0.0, 0.0, 0.0, 0.0, 0.0, 0.0, -0.008, -0.054, 0.994, 192.0, 0.0, 0.0, 0.0, 0.0, 0.0, 0.0, 0.0, 0.0, 0.0, 1.715161941805679E9, 0.0, 2024-05-08 12:52:21.805
38.0, -1718.8267968686578, 0.0, 0.0, 0.0, 0.0, 0.0, 0.0, 0.0, -0.008, -0.054, 0.994, 192.0, 0.0, 0.0, 0.0, 0.0, 0.0, 0.0, 0.0, 0.0, 0.0, 1.7151619418056965E9, 0.0, 2024-05-08 12:52:21.805
39.0, -1329.8840916018596, 0.0, 0.0, 0.0, 0.0, 0.0, 0.0, 0.0, -0.008, -0.054, 0.994, 192.0, 0.0, 0.0, 0.0, 0.0, 0.0, 0.0, 0.0, 0.0, 0.0, 1.715161941805716E9, 0.0, 2024-05-08 12:52:21.805
40.0, -1065.5970651623088, 0.0, 0.0, 0.0, 0.0, 0.0, 0.0, 0.0, -0.008, -0.054, 0.994, 192.0, 0.0, 0.0, 0.0, 0.0, 0.0, 0.0, 0.0, 0.0, 0.0, 1.7151619418057337E9, 0.0, 2024-05-08 12:52:21.805
41.0, -1285.1806026912454, 0.0, 0.0, 0.0, 0.0, 0.0, 0.0, 0.0, -0.008, -0.054, 0.994, 192.0, 0.0, 0.0, 0.0, 0.0, 0.0, 0.0, 0.0, 0.0, 0.0, 1.715161941805752E9, 0.0, 2024-05-08 12:52:21.805
42.0, -1610.085560093589, 0.0, 0.0, 0.0, 0.0, 0.0, 0.0, 0.0, -0.008, -0.054, 0.994, 192.0, 0.0, 0.0, 0.0, 0.0, 0.0, 0.0, 0.0, 0.0, 0.0, 1.7151619418057983E9, 0.0, 2024-05-08 12:52:21.805
43.0, -1745.1571518370095, 0.0, 0.0, 0.0, 0.0, 0.0, 0.0, 0.0, -0.008, -0.054, 0.994, 192.0, 0.0, 0.0, 0.0, 0.0, 0.0, 0.0, 0.0, 0.0, 0.0, 1.7151619418058183E9, 0.0, 2024-05-08 12:52:21.805
44.0, -1668.088336955111, 0.0, 0.0, 0.0, 0.0, 0.0, 0.0, 0.0, -0.008, -0.054, 0.994, 192.0, 0.0, 0.0, 0.0, 0.0, 0.0, 0.0, 0.0, 0.0, 0.0, 1.7151619418058372E9, 0.0, 2024-05-08 12:52:21.805
45.0, -1710.3331339756412, 0.0, 0.0, 0.0, 0.0, 0.0, 0.0, 0.0, -0.01, -0.056, 0.996, 192.0, 255.0, 176.0, 254.0, 64.0, 31.0, 32.0, 0.0, 0.0, 0.0, 1.715161941805855E9, 0.0, 2024-05-08 12:52:21.805
46.0, -2211.727465597089, 0.0, 0.0, 0.0, 0.0, 0.0, 0.0, 0.0, -0.01, -0.056, 0.996, 192.0, 0.0, 0.0, 0.0, 0.0, 0.0, 0.0, 0.0, 0.0, 0.0, 1.7151619418058746E9, 0.0, 2024-05-08 12:52:21.805
47.0, -2854.3401186871674, 0.0, 0.0, 0.0, 0.0, 0.0, 0.0, 0.0, -0.01, -0.056, 0.996, 192.0, 0.0, 0.0, 0.0, 0.0, 0.0, 0.0, 0.0, 0.0, 0.0, 1.715161941805893E9, 0.0, 2024-05-08 12:52:21.805
48.0, -3165.878732905237, 0.0, 0.0, 0.0, 0.0, 0.0, 0.0, 0.0, -0.01, -0.056, 0.996, 192.0, 0.0, 0.0, 0.0, 0.0, 0.0, 0.0, 0.0, 0.0, 0.0, 1.7151619418059156E9, 0.0, 2024-05-08 12:52:21.805
49.0, -3282.8230598954037, 0.0, 0.0, 0.0, 0.0, 0.0, 0.0, 0.0, -0.01, -0.056, 0.996, 192.0, 0.0, 0.0, 0.0, 0.0, 0.0, 0.0, 0.0, 0.0, 0.0, 1.7151619418059375E9, 0.0, 2024-05-08 12:52:21.805
50.0, -3384.1435175113106, 0.0, 0.0, 0.0, 0.0, 0.0, 0.0, 0.0, -0.01, -0.056, 0.996, 192.0, 0.0, 0.0, 0.0, 0.0, 0.0, 0.0, 0.0, 0.0, 0.0, 1.71516194180596E9, 0.0, 2024-05-08 12:52:21.805
51.0, -3824.696400725413, 0.0, 0.0, 0.0, 0.0, 0.0, 0.0, 0.0, -0.01, -0.056, 0.996, 192.0, 0.0, 0.0, 0.0, 0.0, 0.0, 0.0, 0.0, 0.0, 0.0, 1.7151619418059824E9, 0.0, 2024-05-08 12:52:21.805
52.0, -4421.979716060128, 0.0, 0.0, 0.0, 0.0, 0.0, 0.0, 0.0, -0.01, -0.056, 0.996, 192.0, 0.0, 0.0, 0.0, 0.0, 0.0, 0.0, 0.0, 0.0, 0.0, 1.7151619418060062E9, 0.0, 2024-05-08 12:52:21.806
53.0, -4792.348121684566, 0.0, 0.0, 0.0, 0.0, 0.0, 0.0, 0.0, -0.01, -0.056, 0.996, 192.0, 0.0, 0.0, 0.0, 0.0, 0.0, 0.0, 0.0, 0.0, 0.0, 1.715161941806028E9, 0.0, 2024-05-08 12:52:21.806
54.0, -4926.860919816604, 0.0, 0.0, 0.0, 0.0, 0.0, 0.0, 0.0, -0.01, -0.056, 0.996, 192.0, 0.0, 0.0, 0.0, 0.0, 0.0, 0.0, 0.0, 0.0, 0.0, 1.7151619418060565E9, 0.0, 2024-05-08 12:52:21.806
55.0, -5129.837111215247, 0.0, 0.0, 0.0, 0.0, 0.0, 0.0, 0.0, -0.014, -0.056, 0.998, 192.0, 255.0, 144.0, 254.0, 64.0, 31.0, 48.0, 0.0, 0.0, 0.0, 1.7151619418060772E9, 0.0, 2024-05-08 12:52:21.806
56.0, -5643.524902287114, 0.0, 0.0, 0.0, 0.0, 0.0, 0.0, 0.0, -0.014, -0.056, 0.998, 192.0, 0.0, 0.0, 0.0, 0.0, 0.0, 0.0, 0.0, 0.0, 0.0, 1.7151619418060951E9, 0.0, 2024-05-08 12:52:21.806
57.0, -6284.036491398393, 0.0, 0.0, 0.0, 0.0, 0.0, 0.0, 0.0, -0.014, -0.056, 0.998, 192.0, 0.0, 0.0, 0.0, 0.0, 0.0, 0.0, 0.0, 0.0, 0.0, 1.7151619418061123E9, 0.0, 2024-05-08 12:52:21.806
58.0, -6439.247004896046, 0.0, 0.0, 0.0, 0.0, 0.0, 0.0, 0.0, -0.014, -0.056, 0.998, 192.0, 0.0, 0.0, 0.0, 0.0, 0.0, 0.0, 0.0, 0.0, 0.0, 1.7151619418061295E9, 0.0, 2024-05-08 12:52:21.806
59.0, -6193.914257754595, 0.0, 0.0, 0.0, 0.0, 0.0, 0.0, 0.0, -0.014, -0.056, 0.998, 192.0, 0.0, 0.0, 0.0, 0.0, 0.0, 0.0, 0.0, 0.0, 0.0, 1.7151619418061466E9, 0.0, 2024-05-08 12:52:21.806
60.0, -6109.759939880364, 0.0, 0.0, 0.0, 0.0, 0.0, 0.0, 0.0, -0.014, -0.056, 0.998, 192.0, 0.0, 0.0, 0.0, 0.0, 0.0, 0.0, 0.0, 0.0, 0.0, 1.7151619418061771E9, 0.0, 2024-05-08 12:52:21.806
61.0, -6446.176045677191, 0.0, 0.0, 0.0, 0.0, 0.0, 0.0, 0.0, -0.014, -0.056, 0.998, 192.0, 0.0, 0.0, 0.0, 0.0, 0.0, 0.0, 0.0, 0.0, 0.0, 1.7151619418061962E9, 0.0, 2024-05-08 12:52:21.806
62.0, -6795.265590580177, 0.0, 0.0, 0.0, 0.0, 0.0, 0.0, 0.0, -0.014, -0.056, 0.998, 192.0, 0.0, 0.0, 0.0, 0.0, 0.0, 0.0, 0.0, 0.0, 0.0, 1.7151619418062134E9, 0.0, 2024-05-08 12:52:21.806
63.0, -6921.03885663019, 0.0, 0.0, 0.0, 0.0, 0.0, 0.0, 0.0, -0.014, -0.056, 0.998, 192.0, 0.0, 0.0, 0.0, 0.0, 0.0, 0.0, 0.0, 0.0, 0.0, 1.7151619418062303E9, 0.0, 2024-05-08 12:52:21.806
64.0, -6811.269439610177, 0.0, 0.0, 0.0, 0.0, 0.0, 0.0, 0.0, -0.014, -0.056, 0.998, 192.0, 0.0, 0.0, 0.0, 0.0, 0.0, 0.0, 0.0, 0.0, 0.0, 1.7151619418062475E9, 0.0, 2024-05-08 12:52:21.806
65.0, -6863.416059424408, 0.0, 0.0, 0.0, 0.0, 0.0, 0.0, 0.0, -0.008, -0.054, 0.994, 192.0, 255.0, 192.0, 254.0, 80.0, 31.0, 16.0, 0.0, 0.0, 0.0, 1.7151619418062644E9, 0.0, 2024-05-08 12:52:21.806
66.0, -7273.279997501373, 0.0, 0.0, 0.0, 0.0, 0.0, 0.0, 0.0, -0.008, -0.054, 0.994, 192.0, 0.0, 0.0, 0.0, 0.0, 0.0, 0.0, 0.0, 0.0, 0.0, 1.7151619418062823E9, 0.0, 2024-05-08 12:52:21.806
67.0, -7576.794335459988, 0.0, 0.0, 0.0, 0.0, 0.0, 0.0, 0.0, -0.008, -0.054, 0.994, 192.0, 0.0, 0.0, 0.0, 0.0, 0.0, 0.0, 0.0, 0.0, 0.0, 1.715161941806301E9, 0.0, 2024-05-08 12:52:21.806
68.0, -7738.442151360769, 0.0, 0.0, 0.0, 0.0, 0.0, 0.0, 0.0, -0.008, -0.054, 0.994, 192.0, 0.0, 0.0, 0.0, 0.0, 0.0, 0.0, 0.0, 0.0, 0.0, 1.715161941806318E9, 0.0, 2024-05-08 12:52:21.806
69.0, -7714.458729560224, 0.0, 0.0, 0.0, 0.0, 0.0, 0.0, 0.0, -0.008, -0.054, 0.994, 192.0, 0.0, 0.0, 0.0, 0.0, 0.0, 0.0, 0.0, 0.0, 0.0, 1.715161941806335E9, 0.0, 2024-05-08 12:52:21.806
70.0, -7585.5338675420135, 0.0, 0.0, 0.0, 0.0, 0.0, 0.0, 0.0, -0.008, -0.054, 0.994, 192.0, 0.0, 0.0, 0.0, 0.0, 0.0, 0.0, 0.0, 0.0, 0.0, 1.715161941806352E9, 0.0, 2024-05-08 12:52:21.806
71.0, -7876.777097794664, 0.0, 0.0, 0.0, 0.0, 0.0, 0.0, 0.0, -0.008, -0.054, 0.994, 192.0, 0.0, 0.0, 0.0, 0.0, 0.0, 0.0, 0.0, 0.0, 0.0, 1.7151619418063688E9, 0.0, 2024-05-08 12:52:21.806
72.0, -8140.661792834019, 0.0, 0.0, 0.0, 0.0, 0.0, 0.0, 0.0, -0.008, -0.054, 0.994, 192.0, 0.0, 0.0, 0.0, 0.0, 0.0, 0.0, 0.0, 0.0, 0.0, 1.7151619418063855E9, 0.0, 2024-05-08 12:52:21.806
73.0, -8053.937024347428, 0.0, 0.0, 0.0, 0.0, 0.0, 0.0, 0.0, -0.008, -0.054, 0.994, 192.0, 0.0, 0.0, 0.0, 0.0, 0.0, 0.0, 0.0, 0.0, 0.0, 1.715161941806403E9, 0.0, 2024-05-08 12:52:21.806
74.0, -7657.79705736602, 0.0, 0.0, 0.0, 0.0, 0.0, 0.0, 0.0, -0.008, -0.054, 0.994, 192.0, 0.0, 0.0, 0.0, 0.0, 0.0, 0.0, 0.0, 0.0, 0.0, 1.7151619418064198E9, 0.0, 2024-05-08 12:52:21.806
75.0, -7518.813910342921, 0.0, 0.0, 0.0, 0.0, 0.0, 0.0, 0.0, -0.006, -0.054, 0.994, 192.0, 255.0, 208.0, 254.0, 80.0, 31.0, 16.0, 0.0, 0.0, 0.0, 1.7151619418064368E9, 0.0, 2024-05-08 12:52:21.806
76.0, -7682.115755333395, 0.0, 0.0, 0.0, 0.0, 0.0, 0.0, 0.0, -0.006, -0.054, 0.994, 192.0, 0.0, 0.0, 0.0, 0.0, 0.0, 0.0, 0.0, 0.0, 0.0, 1.7151619418064544E9, 0.0, 2024-05-08 12:52:21.806
77.0, -7824.697533213799, 0.0, 0.0, 0.0, 0.0, 0.0, 0.0, 0.0, -0.006, -0.054, 0.994, 192.0, 0.0, 0.0, 0.0, 0.0, 0.0, 0.0, 0.0, 0.0, 0.0, 1.71516194180648E9, 0.0, 2024-05-08 12:52:21.806
78.0, -7584.013948919052, 0.0, 0.0, 0.0, 0.0, 0.0, 0.0, 0.0, -0.006, -0.054, 0.994, 192.0, 0.0, 0.0, 0.0, 0.0, 0.0, 0.0, 0.0, 0.0, 0.0, 1.715161941806497E9, 0.0, 2024-05-08 12:52:21.806
79.0, -7167.980929372422, 0.0, 0.0, 0.0, 0.0, 0.0, 0.0, 0.0, -0.006, -0.054, 0.994, 192.0, 0.0, 0.0, 0.0, 0.0, 0.0, 0.0, 0.0, 0.0, 0.0, 1.7151619418065145E9, 0.0, 2024-05-08 12:52:21.806
80.0, -6834.291736399143, 0.0, 0.0, 0.0, 0.0, 0.0, 0.0, 0.0, -0.006, -0.054, 0.994, 192.0, 0.0, 0.0, 0.0, 0.0, 0.0, 0.0, 0.0, 0.0, 0.0, 1.7151619418065317E9, 0.0, 2024-05-08 12:52:21.806
81.0, -6694.235705642189, 0.0, 0.0, 0.0, 0.0, 0.0, 0.0, 0.0, -0.006, -0.054, 0.994, 192.0, 0.0, 0.0, 0.0, 0.0, 0.0, 0.0, 0.0, 0.0, 0.0, 1.7151619418065484E9, 0.0, 2024-05-08 12:52:21.806
82.0, -6595.485698638642, 0.0, 0.0, 0.0, 0.0, 0.0, 0.0, 0.0, -0.006, -0.054, 0.994, 192.0, 0.0, 0.0, 0.0, 0.0, 0.0, 0.0, 0.0, 0.0, 0.0, 1.7151619418065653E9, 0.0, 2024-05-08 12:52:21.806
83.0, -6528.586927483908, 0.0, 0.0, 0.0, 0.0, 0.0, 0.0, 0.0, -0.006, -0.054, 0.994, 192.0, 0.0, 0.0, 0.0, 0.0, 0.0, 0.0, 0.0, 0.0, 0.0, 1.7151619418065825E9, 0.0, 2024-05-08 12:52:21.806
84.0, -6286.562238521843, 0.0, 0.0, 0.0, 0.0, 0.0, 0.0, 0.0, -0.006, -0.054, 0.994, 192.0, 0.0, 0.0, 0.0, 0.0, 0.0, 0.0, 0.0, 0.0, 0.0, 1.7151619418066392E9, 0.0, 2024-05-08 12:52:21.806
85.0, -6024.510386527823, 0.0, 0.0, 0.0, 0.0, 0.0, 0.0, 0.0, -0.006, -0.054, 0.976, 192.0, 255.0, 208.0, 254.0, 80.0, 30.0, 128.0, 0.0, 0.0, 0.0, 1.7151619418066618E9, 0.0, 2024-05-08 12:52:21.806
86.0, -5976.7223568823765, 0.0, 0.0, 0.0, 0.0, 0.0, 0.0, 0.0, -0.006, -0.054, 0.976, 192.0, 0.0, 0.0, 0.0, 0.0, 0.0, 0.0, 0.0, 0.0, 0.0, 1.71516194180669E9, 0.0, 2024-05-08 12:52:21.806
87.0, -5929.604879570589, 0.0, 0.0, 0.0, 0.0, 0.0, 0.0, 0.0, -0.006, -0.054, 0.976, 192.0, 0.0, 0.0, 0.0, 0.0, 0.0, 0.0, 0.0, 0.0, 0.0, 1.7151619418067188E9, 0.0, 2024-05-08 12:52:21.806
88.0, -5710.043693786108, 0.0, 0.0, 0.0, 0.0, 0.0, 0.0, 0.0, -0.006, -0.054, 0.976, 192.0, 0.0, 0.0, 0.0, 0.0, 0.0, 0.0, 0.0, 0.0, 0.0, 1.7151619418067484E9, 0.0, 2024-05-08 12:52:21.806
89.0, -5295.038854484422, 0.0, 0.0, 0.0, 0.0, 0.0, 0.0, 0.0, -0.006, -0.054, 0.976, 192.0, 0.0, 0.0, 0.0, 0.0, 0.0, 0.0, 0.0, 0.0, 0.0, 1.7151619418067677E9, 0.0, 2024-05-08 12:52:21.806
90.0, -4971.877333149592, 0.0, 0.0, 0.0, 0.0, 0.0, 0.0, 0.0, -0.006, -0.054, 0.976, 192.0, 0.0, 0.0, 0.0, 0.0, 0.0, 0.0, 0.0, 0.0, 0.0, 1.715161941806786E9, 0.0, 2024-05-08 12:52:21.806
91.0, -5023.37575237462, 0.0, 0.0, 0.0, 0.0, 0.0, 0.0, 0.0, -0.006, -0.054, 0.976, 192.0, 0.0, 0.0, 0.0, 0.0, 0.0, 0.0, 0.0, 0.0, 0.0, 1.7151619422830353E9, 0.0, 2024-05-08 12:52:22.283
92.0, -5137.369649096686, 0.0, 0.0, 0.0, 0.0, 0.0, 0.0, 0.0, -0.006, -0.054, 0.976, 192.0, 0.0, 0.0, 0.0, 0.0, 0.0, 0.0, 0.0, 0.0, 0.0, 1.7151619422831364E9, 0.0, 2024-05-08 12:52:22.283
93.0, -5015.642048793084, 0.0, 0.0, 0.0, 0.0, 0.0, 0.0, 0.0, -0.006, -0.054, 0.976, 192.0, 0.0, 0.0, 0.0, 0.0, 0.0, 0.0, 0.0, 0.0, 0.0, 1.715161942283178E9, 0.0, 2024-05-08 12:52:22.283
94.0, -4666.418393423366, 0.0, 0.0, 0.0, 0.0, 0.0, 0.0, 0.0, -0.006, -0.054, 0.976, 192.0, 0.0, 0.0, 0.0, 0.0, 0.0, 0.0, 0.0, 0.0, 0.0, 1.7151619422832108E9, 0.0, 2024-05-08 12:52:22.283
95.0, -4398.0857012374045, 0.0, 0.0, 0.0, 0.0, 0.0, 0.0, 0.0, -0.004, -0.058, 0.98, 192.0, 255.0, 224.0, 254.0, 48.0, 30.0, 160.0, 0.0, 0.0, 0.0, 1.7151619422833304E9, 0.0, 2024-05-08 12:52:22.283
96.0, -4427.9029283407845, 0.0, 0.0, 0.0, 0.0, 0.0, 0.0, 0.0, -0.004, -0.058, 0.98, 192.0, 0.0, 0.0, 0.0, 0.0, 0.0, 0.0, 0.0, 0.0, 0.0, 1.7151619422833526E9, 0.0, 2024-05-08 12:52:22.283
97.0, -4491.158365149304, 0.0, 0.0, 0.0, 0.0, 0.0, 0.0, 0.0, -0.004, -0.058, 0.98, 192.0, 0.0, 0.0, 0.0, 0.0, 0.0, 0.0, 0.0, 0.0, 0.0, 1.7151619422833712E9, 0.0, 2024-05-08 12:52:22.283
98.0, -4336.104313862838, 0.0, 0.0, 0.0, 0.0, 0.0, 0.0, 0.0, -0.004, -0.058, 0.98, 192.0, 0.0, 0.0, 0.0, 0.0, 0.0, 0.0, 0.0, 0.0, 0.0, 1.7151619422833908E9, 0.0, 2024-05-08 12:52:22.283
99.0, -4017.703714096989, 0.0, 0.0, 0.0, 0.0, 0.0, 0.0, 0.0, -0.004, -0.058, 0.98, 192.0, 0.0, 0.0, 0.0, 0.0, 0.0, 0.0, 0.0, 0.0, 0.0, 1.7151619422834089E9, 0.0, 2024-05-08 12:52:22.283
100.0, -3799.3942260020053, 0.0, 0.0, 0.0, 0.0, 0.0, 0.0, 0.0, -0.004, -0.058, 0.98, 192.0, 0.0, 0.0, 0.0, 0.0, 0.0, 0.0, 0.0, 0.0, 0.0, 1.7151619422834268E9, 0.0, 2024-05-08 12:52:22.283
101.0, -3892.0869102581637, 0.0, 0.0, 0.0, 0.0, 0.0, 0.0, 0.0, -0.004, -0.058, 0.98, 192.0, 0.0, 0.0, 0.0, 0.0, 0.0, 0.0, 0.0, 0.0, 0.0, 1.7151619422834446E9, 0.0, 2024-05-08 12:52:22.283
102.0, -4065.5587989758014, 0.0, 0.0, 0.0, 0.0, 0.0, 0.0, 0.0, -0.004, -0.058, 0.98, 192.0, 0.0, 0.0, 0.0, 0.0, 0.0, 0.0, 0.0, 0.0, 0.0, 1.7151619422834637E9, 0.0, 2024-05-08 12:52:22.283
103.0, -3956.459934289448, 0.0, 0.0, 0.0, 0.0, 0.0, 0.0, 0.0, -0.004, -0.058, 0.98, 192.0, 0.0, 0.0, 0.0, 0.0, 0.0, 0.0, 0.0, 0.0, 0.0, 1.715161942283482E9, 0.0, 2024-05-08 12:52:22.283
104.0, -3603.592944573515, 0.0, 0.0, 0.0, 0.0, 0.0, 0.0, 0.0, -0.004, -0.058, 0.98, 192.0, 0.0, 0.0, 0.0, 0.0, 0.0, 0.0, 0.0, 0.0, 0.0, 1.7151619422835004E9, 0.0, 2024-05-08 12:52:22.283
105.0, -3327.548900550473, 0.0, 0.0, 0.0, 0.0, 0.0, 0.0, 0.0, -0.004, -0.064, 0.98, 192.0, 255.0, 224.0, 254.0, 0.0, 30.0, 160.0, 0.0, 0.0, 0.0, 1.7151619422835195E9, 0.0, 2024-05-08 12:52:22.283
106.0, -3305.934763662191, 0.0, 0.0, 0.0, 0.0, 0.0, 0.0, 0.0, -0.004, -0.064, 0.98, 192.0, 0.0, 0.0, 0.0, 0.0, 0.0, 0.0, 0.0, 0.0, 0.0, 1.7151619422835383E9, 0.0, 2024-05-08 12:52:22.283
107.0, -3349.7665345390483, 0.0, 0.0, 0.0, 0.0, 0.0, 0.0, 0.0, -0.004, -0.064, 0.98, 192.0, 0.0, 0.0, 0.0, 0.0, 0.0, 0.0, 0.0, 0.0, 0.0, 1.7151619422835565E9, 0.0, 2024-05-08 12:52:22.283
108.0, -3298.2010600806548, 0.0, 0.0, 0.0, 0.0, 0.0, 0.0, 0.0, -0.004, -0.064, 0.98, 192.0, 0.0, 0.0, 0.0, 0.0, 0.0, 0.0, 0.0, 0.0, 0.0, 1.7151619422835743E9, 0.0, 2024-05-08 12:52:22.283
109.0, -3095.247220426467, 0.0, 0.0, 0.0, 0.0, 0.0, 0.0, 0.0, -0.004, -0.064, 0.98, 192.0, 0.0, 0.0, 0.0, 0.0, 0.0, 0.0, 0.0, 0.0, 0.0, 1.7151619422835915E9, 0.0, 2024-05-08 12:52:22.283
110.0, -2946.317547120756, 0.0, 0.0, 0.0, 0.0, 0.0, 0.0, 0.0, -0.004, -0.064, 0.98, 192.0, 0.0, 0.0, 0.0, 0.0, 0.0, 0.0, 0.0, 0.0, 0.0, 1.715161942283614E9, 0.0, 2024-05-08 12:52:22.283
111.0, -3104.8361187977935, 0.0, 0.0, 0.0, 0.0, 0.0, 0.0, 0.0, -0.004, -0.064, 0.98, 192.0, 0.0, 0.0, 0.0, 0.0, 0.0, 0.0, 0.0, 0.0, 0.0, 1.7151619422836363E9, 0.0, 2024-05-08 12:52:22.283
112.0, -3310.6062782533504, 0.0, 0.0, 0.0, 0.0, 0.0, 0.0, 0.0, -0.004, -0.064, 0.98, 192.0, 0.0, 0.0, 0.0, 0.0, 0.0, 0.0, 0.0, 0.0, 0.0, 1.7151619422836716E9, 0.0, 2024-05-08 12:52:22.283
113.0, -3236.7114110841053, 0.0, 0.0, 0.0, 0.0, 0.0, 0.0, 0.0, -0.004, -0.064, 0.98, 192.0, 0.0, 0.0, 0.0, 0.0, 0.0, 0.0, 0.0, 0.0, 0.0, 1.7151619422836971E9, 0.0, 2024-05-08 12:52:22.283
114.0, -2933.107666147669, 0.0, 0.0, 0.0, 0.0, 0.0, 0.0, 0.0, -0.004, -0.064, 0.98, 192.0, 0.0, 0.0, 0.0, 0.0, 0.0, 0.0, 0.0, 0.0, 0.0, 1.7151619422837217E9, 0.0, 2024-05-08 12:52:22.283
