%OpenBCI Raw EXG Data
%Number of channels = 8
%Sample Rate = 250 Hz
%Board = OpenBCI_GUI$BoardCytonSerial
Sample Index, EXG Channel 0, EXG Channel 1, EXG Channel 2, EXG Channel 3, EXG Channel 4, EXG Channel 5, EXG Channel 6, EXG Channel 7, Accel Channel 0, Accel Channel 1, Accel Channel 2, Other, Other, Other, Other, Other, Other, Other, Analog Channel 0, Analog Channel 1, Analog Channel 2, Timestamp, Other, Timestamp (Formatted)
136.0, 1426.577738115518, -187500.02235174447, -187500.02235174447, -187500.02235174447, -187500.02235174447, -187500.02235174447, -187500.02235174447, -187500.02235174447, 0.0, 0.0, 0.0, 192.0, 0.0, 0.0, 0.0, 0.0, 0.0, 0.0, 0.0, 0.0, 0.0, 1.7161968927703469E9, 0.0, 2024-05-20 12:21:32.770
137.0, 1411.646772819373, -187500.02235174447, -187500.02235174447, -187500.02235174447, -187500.02235174447, -187500.02235174447, -187500.02235174447, -187500.02235174447, 0.0, 0.0, 0.0, 192.0, 0.0, 0.0, 0.0, 0.0, 0.0, 0.0, 0.0, 0.0, 0.0, 1.7161968927703848E9, 0.0, 2024-05-20 12:21:32.770
0.0, 5879.984006879808, -112376.88212119129, -72351.076883206, -26216.47283035193, -66145.89734624593, -13623.83528039876, -164128.72542485304, -187500.02235174447, 0.324, 0.04, 0.376, 192.0, 10.0, 32.0, 1.0, 64.0, 11.0, 192.0, 0.0, 0.0, 0.0, 1.7161968928668156E9, 0.0, 2024-05-20 12:21:32.866
1.0, 5876.743003933788, -112337.65480967223, -72350.45103436125, -26172.350486797153, -66122.67388375687, -13591.559361405298, -164129.53008765343, -187500.02235174447, 0.324, 0.04, 0.376, 192.0, 0.0, 0.0, 0.0, 0.0, 0.0, 0.0, 0.0, 0.0, 0.0, 1.7161968928698184E9, 0.0, 2024-05-20 12:21:32.869
2.0, 5832.4418464233695, -112361.63823147277, -72413.81822989204, -26194.434010318997, -66165.54452962214, -13620.571925708286, -164196.49591404153, -187500.02235174447, 0.324, 0.04, 0.376, 192.0, 0.0, 0.0, 0.0, 0.0, 0.0, 0.0, 0.0, 0.0, 0.0, 1.7161968928738632E9, 0.0, 2024-05-20 12:21:32.873
3.0, 5806.178546688384, -112434.75078758608, -72527.70036789184, -26263.657362897084, -66257.61136503356, -13700.300598180367, -164313.95433115415, -187500.02235174447, 0.324, 0.04, 0.376, 192.0, 0.0, 0.0, 0.0, 0.0, 0.0, 0.0, 0.0, 0.0, 0.0, 1.716196892877854E9, 0.0, 2024-05-20 12:21:32.877
4.0, 5825.892785297965, -112478.09082008492, -72610.62533982102, -26300.470686014974, -66318.05048204071, -13750.368505760254, -164400.2544164961, -187500.02235174447, 0.324, 0.04, 0.376, 192.0, 0.0, 0.0, 0.0, 0.0, 0.0, 0.0, 0.0, 0.0, 0.0, 1.7161968928819413E9, 0.0, 2024-05-20 12:21:32.881
5.0, 5876.854762656065, -112498.34150056142, -72670.63977368352, -26313.613511754695, -66355.48965400335, -13776.363584561775, -164461.87817595937, -187500.02235174447, 0.324, 0.04, 0.376, 192.0, 0.0, 0.0, 0.0, 0.0, 0.0, 0.0, 0.0, 0.0, 0.0, 1.7161968928848665E9, 0.0, 2024-05-20 12:21:32.884
6.0, 5847.126942530506, -112430.48160439511, -72638.58737213461, -26239.629237607627, -66303.3430341891, -13712.705816353062, -164432.28446630057, -187500.02235174447, 0.324, 0.04, 0.376, 192.0, 0.0, 0.0, 0.0, 0.0, 0.0, 0.0, 0.0, 0.0, 0.0, 1.716196892889968E9, 0.0, 2024-05-20 12:21:32.889
7.0, 5805.955029243831, -112364.49925476304, -72606.6914327969, -26175.479731020896, -66253.96803068733, -13655.150074380646, -164397.34868971692, -187500.02235174447, 0.484, 0.062, 0.562, 192.0, 15.0, 32.0, 1.0, 240.0, 17.0, 144.0, 0.0, 0.0, 0.0, 1.7161968928939528E9, 0.0, 2024-05-20 12:21:32.893
8.0, 5815.543927615157, -112490.11605860187, -72772.78724584427, -26301.16359009309, -66399.54494232475, -13788.344119589821, -164560.9411073853, -187500.02235174447, 0.484, 0.062, 0.562, 192.0, 0.0, 0.0, 0.0, 0.0, 0.0, 0.0, 0.0, 0.0, 0.0, 1.7161968928969486E9, 0.0, 2024-05-20 12:21:32.896
9.0, 5836.398105191959, -112580.05947829003, -72902.87439857416, -26384.60265214475, -66509.15789713358, -13883.495495736062, -164697.7784869407, -187500.02235174447, 0.484, 0.062, 0.562, 192.0, 0.0, 0.0, 0.0, 0.0, 0.0, 0.0, 0.0, 0.0, 0.0, 1.7161968929011233E9, 0.0, 2024-05-20 12:21:32.901
10.0, 5871.40093700897, -112567.00605952812, -72927.61777968619, -26364.73195132398, -66514.16468789156, -13877.661690433228, -164730.74731001226, -187500.02235174447, 0.484, 0.062, 0.562, 192.0, 0.0, 0.0, 0.0, 0.0, 0.0, 0.0, 0.0, 0.0, 0.0, 1.716196892907025E9, 0.0, 2024-05-20 12:21:32.907
11.0, 5893.305646575171, -112594.78927788607, -72993.73423978499, -26385.45201843405, -66560.8127785698, -13913.782109473004, -164803.9492731034, -187500.02235174447, 0.484, 0.062, 0.562, 192.0, 0.0, 0.0, 0.0, 0.0, 0.0, 0.0, 0.0, 0.0, 0.0, 1.716196892910005E9, 0.0, 2024-05-20 12:21:32.910
12.0, 5805.329180399082, -112568.21305372872, -73003.12197245623, -26354.45014887454, -66550.82154879827, -13894.067870863424, -164822.99295937933, -187500.02235174447, 0.484, 0.062, 0.562, 192.0, 0.0, 0.0, 0.0, 0.0, 0.0, 0.0, 0.0, 0.0, 0.0, 1.7161968929140477E9, 0.0, 2024-05-20 12:21:32.914
13.0, 5800.881183252476, -112630.79793820357, -73103.68247076064, -26415.336300770796, -66633.34418932727, -13961.57013911845, -164934.2822950223, -187500.02235174447, 0.484, 0.062, 0.562, 192.0, 0.0, 0.0, 0.0, 0.0, 0.0, 0.0, 0.0, 0.0, 0.0, 1.716196892917024E9, 0.0, 2024-05-20 12:21:32.917
14.0, 5838.856797082043, -112733.2583347867, -73244.85608874036, -26507.872522815767, -66754.69180997513, -14066.489227591663, -165085.04481137334, -187500.02235174447, 0.484, 0.062, 0.562, 192.0, 0.0, 0.0, 0.0, 0.0, 0.0, 0.0, 0.0, 0.0, 0.0, 1.716196892921073E9, 0.0, 2024-05-20 12:21:32.921
15.0, 5887.6730069724335, -112764.23785260176, -73312.73833665113, -26527.609113169805, -66804.02210998799, -14098.496925651662, -165162.27008846644, -187500.02235174447, 0.484, 0.062, 0.562, 192.0, 0.0, 0.0, 0.0, 0.0, 0.0, 0.0, 0.0, 0.0, 0.0, 1.716196892925054E9, 0.0, 2024-05-20 12:21:32.925
16.0, 5876.139506833495, -112753.62077398549, -73337.99580788563, -26507.604301882304, -66810.57117111339, -14088.88567553588, -165197.96582436154, -187500.02235174447, 0.5720000000000001, 0.062, 0.658, 192.0, 17.0, 224.0, 1.0, 240.0, 20.0, 144.0, 0.0, 0.0, 0.0, 1.716196892929072E9, 0.0, 2024-05-20 12:21:32.929
17.0, 5807.519651355702, -112707.15149726291, -73325.83645890195, -26457.067007668855, -66781.78212425495, -14047.78081748257, -165198.92694937313, -187500.02235174447, 0.5720000000000001, 0.062, 0.658, 192.0, 0.0, 0.0, 0.0, 0.0, 0.0, 0.0, 0.0, 0.0, 0.0, 1.716196892933081E9, 0.0, 2024-05-20 12:21:32.933
18.0, 5791.851078492532, -112764.99781191324, -73420.6749106258, -26510.48767691704, -66860.05793333745, -14111.527992669106, -165306.4611919476, -187500.02235174447, 0.5720000000000001, 0.062, 0.658, 192.0, 0.0, 0.0, 0.0, 0.0, 0.0, 0.0, 0.0, 0.0, 0.0, 1.716196892936102E9, 0.0, 2024-05-20 12:21:32.936
19.0, 5801.931715241875, -112780.44286733186, -73474.90024267438, -26521.52943867796, -66895.55250353247, -14132.628039434916, -165372.9799834466, -187500.02235174447, 0.5720000000000001, 0.062, 0.658, 192.0, 0.0, 0.0, 0.0, 0.0, 0.0, 0.0, 0.0, 0.0, 0.0, 1.7161968929422102E9, 0.0, 2024-05-20 12:21:32.942
20.0, 5849.92091058742, -112735.42645399887, -73468.03825712661, -26476.870653256257, -66868.95392763066, -14096.17234422831, -165373.65053578027, -187500.02235174447, 0.5720000000000001, 0.062, 0.658, 192.0, 0.0, 0.0, 0.0, 0.0, 0.0, 0.0, 0.0, 0.0, 0.0, 1.7161968929451492E9, 0.0, 2024-05-20 12:21:32.945
21.0, 5896.747815221288, -112797.45254486235, -73568.57640368657, -26537.57799119687, -66950.8507193149, -14165.552159017583, -165479.5083975206, -187500.02235174447, 0.5720000000000001, 0.062, 0.658, 192.0, 0.0, 0.0, 0.0, 0.0, 0.0, 0.0, 0.0, 0.0, 0.0, 1.7161968929492044E9, 0.0, 2024-05-20 12:21:32.949
22.0, 5827.166834731917, -112829.34848420006, -73637.57623882011, -26565.0706368769, -67002.6173594734, -14203.684235058337, -165560.75698861564, -187500.02235174447, 0.5720000000000001, 0.062, 0.658, 192.0, 0.0, 0.0, 0.0, 0.0, 0.0, 0.0, 0.0, 0.0, 0.0, 1.7161968929532137E9, 0.0, 2024-05-20 12:21:32.953
23.0, 5794.95797097182, -112874.78958067771, -73718.66836770397, -26606.086087952386, -67068.62206084991, -14253.729790893769, -165658.2552979297, -187500.02235174447, 0.5720000000000001, 0.062, 0.658, 192.0, 0.0, 0.0, 0.0, 0.0, 0.0, 0.0, 0.0, 0.0, 0.0, 1.716196892957198E9, 0.0, 2024-05-20 12:21:32.957
24.0, 5812.079407224585, -112911.64760728451, -73793.32319418469, -26638.116137756842, -67126.71424468925, -14294.857000691534, -165746.81290946162, -187500.02235174447, 0.5720000000000001, 0.062, 0.658, 192.0, 0.0, 0.0, 0.0, 0.0, 0.0, 0.0, 0.0, 0.0, 0.0, 1.7161968929602022E9, 0.0, 2024-05-20 12:21:32.960
25.0, 5850.725573387811, -112895.77786872124, -73815.16084851752, -26618.22308519162, -67129.0388261126, -14284.575198242093, -165782.59805233456, -187500.02235174447, 0.5720000000000001, 0.062, 0.658, 192.0, 0.0, 0.0, 0.0, 0.0, 0.0, 0.0, 0.0, 0.0, 0.0, 1.7161968929662004E9, 0.0, 2024-05-20 12:21:32.966
26.0, 5842.947166317364, -112822.59825737456, -73779.6662783225, -26545.334046522865, -67074.12058998592, -14220.269229444175, -165759.2851828677, -187500.02235174447, 0.612, 0.064, 0.706, 192.0, 19.0, 32.0, 2.0, 0.0, 22.0, 16.0, 0.0, 0.0, 0.0, 1.7161968929691825E9, 0.0, 2024-05-20 12:21:32.969
27.0, 5811.788834546666, -112803.9792542433, -73797.41356342, -26529.754880637513, -67074.32175568602, -14209.942723505823, -165782.75451454576, -187500.02235174447, 0.612, 0.064, 0.706, 192.0, 0.0, 0.0, 0.0, 0.0, 0.0, 0.0, 0.0, 0.0, 0.0, 1.7161968929752643E9, 0.0, 2024-05-20 12:21:32.975
28.0, 5810.894764768454, -112954.67471536098, -73985.23527207796, -26675.91293763077, -67246.0278565917, -14364.147408502986, -165980.41099076404, -187500.02235174447, 0.612, 0.064, 0.706, 192.0, 0.0, 0.0, 0.0, 0.0, 0.0, 0.0, 0.0, 0.0, 0.0, 1.7161968929792905E9, 0.0, 2024-05-20 12:21:32.979
29.0, 5822.718837585311, -113014.66679747902, -74080.54311043539, -26725.19853415472, -67323.38724415151, -14427.224031355863, -166091.27564326234, -187500.02235174447, 0.612, 0.064, 0.706, 192.0, 0.0, 0.0, 0.0, 0.0, 0.0, 0.0, 0.0, 0.0, 0.0, 1.716196892982277E9, 0.0, 2024-05-20 12:21:32.982
30.0, 5871.490343986791, -113037.7785012458, -74139.10468090829, -26737.447290116226, -67365.2967650052, -14452.19092991244, -166166.08693195425, -187500.02235174447, 0.612, 0.064, 0.706, 192.0, 0.0, 0.0, 0.0, 0.0, 0.0, 0.0, 0.0, 0.0, 0.0, 1.7161968929882753E9, 0.0, 2024-05-20 12:21:32.988
31.0, 5875.4689544998355, -113033.19639363246, -74170.5535853569, -26726.33847312194, -67378.17136981146, -14450.33573512265, -166213.2714644994, -187500.02235174447, 0.612, 0.064, 0.706, 192.0, 0.0, 0.0, 0.0, 0.0, 0.0, 0.0, 0.0, 0.0, 0.0, 1.7161968929913232E9, 0.0, 2024-05-20 12:21:32.991
32.0, 5817.600288105045, -113033.01757967683, -74204.59529216234, -26720.839943985935, -67393.16939034098, -14451.498025834326, -166263.60759301277, -187500.02235174447, 0.612, 0.064, 0.706, 192.0, 0.0, 0.0, 0.0, 0.0, 0.0, 0.0, 0.0, 0.0, 0.0, 1.7161968929943116E9, 0.0, 2024-05-20 12:21:32.994
33.0, 5783.200953388328, -113076.15644647556, -74282.20054891116, -26758.569688626492, -67452.20034744745, -14495.016872288808, -166357.32845751388, -187500.02235174447, 0.612, 0.064, 0.706, 192.0, 0.0, 0.0, 0.0, 0.0, 0.0, 0.0, 0.0, 0.0, 0.0, 1.716196892998294E9, 0.0, 2024-05-20 12:21:32.998
34.0, 5809.464253123314, -113162.50123530642, -74407.07974518297, -26839.55005878807, -67557.7452847654, -14582.702765786978, -166497.295081293, -187500.02235174447, 0.612, 0.064, 0.706, 192.0, 0.0, 0.0, 0.0, 0.0, 0.0, 0.0, 0.0, 0.0, 0.0, 1.71619689300132E9, 0.0, 2024-05-20 12:21:33.001
35.0, 5850.837332110087, -113167.99976444243, -74447.4246439248, -26837.046663409077, -67580.2534914319, -14588.089536200707, -166556.12487269938, -187500.02235174447, 0.612, 0.064, 0.706, 192.0, 0.0, 0.0, 0.0, 0.0, 0.0, 0.0, 0.0, 0.0, 0.0, 1.7161968930053496E9, 0.0, 2024-05-20 12:21:33.005
36.0, 5870.439811997391, -113167.2621568754, -74482.31571701953, -26829.938808672287, -67597.10670675119, -14588.581274578724, -166609.7243559032, -187500.02235174447, 0.63, 0.07, 0.734, 192.0, 19.0, 176.0, 2.0, 48.0, 22.0, 240.0, 0.0, 0.0, 0.0, 1.7161968930093567E9, 0.0, 2024-05-20 12:21:33.009
37.0, 5814.605154348034, -113182.6178053162, -74534.55174381158, -26841.36055008895, -67632.19894554603, -14606.84264979871, -166681.1828829268, -187500.02235174447, 0.63, 0.07, 0.734, 192.0, 0.0, 0.0, 0.0, 0.0, 0.0, 0.0, 0.0, 0.0, 0.0, 1.7161968930134296E9, 0.0, 2024-05-20 12:21:33.013
38.0, 5780.295226609138, -113231.65753265114, -74617.32025352959, -26881.392524408406, -67697.80131552236, -14657.715220178989, -166783.6209277655, -187500.02235174447, 0.63, 0.07, 0.734, 192.0, 0.0, 0.0, 0.0, 0.0, 0.0, 0.0, 0.0, 0.0, 0.0, 1.716196893016402E9, 0.0, 2024-05-20 12:21:33.016
39.0, 5792.946313970842, -113260.53598648739, -74677.98288798128, -26899.430382183837, -67743.13065327772, -14687.308929837816, -166865.7412368943, -187500.02235174447, 0.63, 0.07, 0.734, 192.0, 0.0, 0.0, 0.0, 0.0, 0.0, 0.0, 0.0, 0.0, 0.0, 1.7161968930204146E9, 0.0, 2024-05-20 12:21:33.020
40.0, 5843.237738995283, -113257.16087307464, -74706.50371390626, -26887.85217855599, -67755.96055459506, -14686.996005415442, -166916.0550136632, -187500.02235174447, 0.63, 0.07, 0.734, 192.0, 0.0, 0.0, 0.0, 0.0, 0.0, 0.0, 0.0, 0.0, 0.0, 1.71619689302443E9, 0.0, 2024-05-20 12:21:33.024
41.0, 5843.796532606666, -113220.63812263467, -74704.3355946941, -26846.590858291493, -67734.77110085143, -14654.161292810595, -166929.9577987144, -187500.02235174447, 0.63, 0.07, 0.734, 192.0, 0.0, 0.0, 0.0, 0.0, 0.0, 0.0, 0.0, 0.0, 0.0, 1.7161968930284493E9, 0.0, 2024-05-20 12:21:33.028
42.0, 5785.771404000689, -113155.92982243656, -74673.46783560132, -26782.888386593866, -67685.26198688294, -14594.03510022582, -166905.66145249148, -187500.02235174447, 0.63, 0.07, 0.734, 192.0, 0.0, 0.0, 0.0, 0.0, 0.0, 0.0, 0.0, 0.0, 0.0, 1.7161968930334723E9, 0.0, 2024-05-20 12:21:33.033
43.0, 5809.732474056777, -113302.15493466318, -74856.0145325678, -26923.704376662303, -67850.53078538548, -14741.82483456431, -167094.66780360555, -187500.02235174447, 0.63, 0.07, 0.734, 192.0, 0.0, 0.0, 0.0, 0.0, 0.0, 0.0, 0.0, 0.0, 0.0, 1.7161968930445175E9, 0.0, 2024-05-20 12:21:33.044
44.0, 5829.91609929992, -113432.06327343742, -75021.99858689292, -27039.68757864089, -67998.47698193515, -14868.447466903624, -167279.56143373984, -187500.02235174447, 0.63, 0.07, 0.734, 192.0, 0.0, 0.0, 0.0, 0.0, 0.0, 0.0, 0.0, 0.0, 0.0, 1.7161968930475457E9, 0.0, 2024-05-20 12:21:33.047
45.0, 5863.577826449612, -113446.41309337773, -75071.2171281835, -27039.9334478299, -68030.23881080614, -14879.08689726435, -167348.56126887337, -187500.02235174447, 0.63, 0.07, 0.734, 192.0, 0.0, 0.0, 0.0, 0.0, 0.0, 0.0, 0.0, 0.0, 0.0, 1.716196893050862E9, 0.0, 2024-05-20 12:21:33.050
46.0, 5877.480611500813, -113450.50346261305, -75109.86329434672, -27033.96553206033, -68052.94818317273, -14882.730231610565, -167405.9158451457, -187500.02235174447, 0.636, 0.074, 0.738, 192.0, 19.0, 224.0, 2.0, 80.0, 23.0, 16.0, 0.0, 0.0, 0.0, 1.7161968930545385E9, 0.0, 2024-05-20 12:21:33.054
47.0, 5817.644991593957, -113468.67543085522, -75160.89232693819, -27041.989808319788, -68086.94518648925, -14899.024653318484, -167475.47447389062, -187500.02235174447, 0.636, 0.074, 0.738, 192.0, 0.0, 0.0, 0.0, 0.0, 0.0, 0.0, 0.0, 0.0, 0.0, 1.716196893057531E9, 0.0, 2024-05-20 12:21:33.057
48.0, 5762.816162445088, -113485.10396302986, -75209.28385368394, -27046.594267677578, -68116.85182057045, -14911.206354046626, -167542.32854155643, -187500.02235174447, 0.636, 0.074, 0.738, 192.0, 0.0, 0.0, 0.0, 0.0, 0.0, 0.0, 0.0, 0.0, 0.0, 1.716196893060537E9, 0.0, 2024-05-20 12:21:33.060
49.0, 5785.257313878216, -113530.2991903185, -75285.50330227653, -27079.518387260247, -68176.2404055882, -14952.467674311123, -167639.08924330346, -187500.02235174447, 0.636, 0.074, 0.738, 192.0, 0.0, 0.0, 0.0, 0.0, 0.0, 0.0, 0.0, 0.0, 0.0, 1.7161968930645623E9, 0.0, 2024-05-20 12:21:33.064
50.0, 5852.49136119978, -113561.32341162246, -75351.41859667524, -27100.529027048236, -68224.72133931177, -14981.860218269852, -167724.15998270037, -187500.02235174447, 0.636, 0.074, 0.738, 192.0, 0.0, 0.0, 0.0, 0.0, 0.0, 0.0, 0.0, 0.0, 0.0, 1.7161968930675523E9, 0.0, 2024-05-20 12:21:33.067
51.0, 5865.321262517126, -113580.43415313175, -75405.82274267945, -27110.587312053125, -68260.7076478848, -14998.624026611333, -167796.2443585687, -187500.02235174447, 0.636, 0.074, 0.738, 192.0, 0.0, 0.0, 0.0, 0.0, 0.0, 0.0, 0.0, 0.0, 0.0, 1.7161968930705647E9, 0.0, 2024-05-20 12:21:33.070
52.0, 5807.027912977685, -113574.17566468427, -75433.51655405958, -27096.617471768557, -68270.98945033425, -14990.465639885146, -167841.26077190173, -187500.02235174447, 0.636, 0.074, 0.738, 192.0, 0.0, 0.0, 0.0, 0.0, 0.0, 0.0, 0.0, 0.0, 0.0, 1.716196893074593E9, 0.0, 2024-05-20 12:21:33.074
53.0, 5776.115450395996, -113640.44858699424, -75532.82535467451, -27152.697998606924, -68354.33910540809, -15052.715248193175, -167961.51315707125, -187500.02235174447, 0.636, 0.074, 0.738, 192.0, 0.0, 0.0, 0.0, 0.0, 0.0, 0.0, 0.0, 0.0, 0.0, 1.7161968930776205E9, 0.0, 2024-05-20 12:21:33.077
54.0, 5802.758729786722, -113723.7982420681, -75649.74732992021, -27222.793069218766, -68453.26792636728, -15129.873470052895, -168099.84810350515, -187500.02235174447, 0.636, 0.074, 0.738, 192.0, 0.0, 0.0, 0.0, 0.0, 0.0, 0.0, 0.0, 0.0, 0.0, 1.7161968930806904E9, 0.0, 2024-05-20 12:21:33.080
55.0, 5851.7537536327545, -113750.08389354753, -75711.32638589459, -27236.29352286977, -68495.22215070989, -15151.241737752169, -168182.43779926753, -187500.02235174447, 0.646, 0.078, 0.742, 192.0, 20.0, 48.0, 2.0, 112.0, 23.0, 48.0, 0.0, 0.0, 0.0, 1.7161968930846324E9, 0.0, 2024-05-20 12:21:33.084
56.0, 5866.72942241781, -113761.12565530845, -75755.1805085159, -27232.381967590092, -68520.56902892221, -15155.689734898775, -168244.21802094197, -187500.02235174447, 0.646, 0.078, 0.742, 192.0, 0.0, 0.0, 0.0, 0.0, 0.0, 0.0, 0.0, 0.0, 0.0, 1.716196893088665E9, 0.0, 2024-05-20 12:21:33.088
57.0, 5804.636276320967, -113767.0041641002, -75791.70325895587, -27223.66478725252, -68538.8751076311, -15155.197996520757, -168299.6279954467, -187500.02235174447, 0.646, 0.078, 0.742, 192.0, 0.0, 0.0, 0.0, 0.0, 0.0, 0.0, 0.0, 0.0, 0.0, 1.716196893093681E9, 0.0, 2024-05-20 12:21:33.093
58.0, 5760.715098466289, -113755.38125698344, -75809.53995103121, -27199.43549626297, -68537.84692738616, -15137.204842234236, -168328.34998707176, -187500.02235174447, 0.646, 0.078, 0.742, 192.0, 0.0, 0.0, 0.0, 0.0, 0.0, 0.0, 0.0, 0.0, 0.0, 1.716196893096871E9, 0.0, 2024-05-20 12:21:33.096
59.0, 5813.554622358635, -113877.86881659852, -75964.34813312866, -27306.5450556928, -68675.42191450858, -15251.802236056596, -168490.6683553062, -187500.02235174447, 0.646, 0.078, 0.742, 192.0, 0.0, 0.0, 0.0, 0.0, 0.0, 0.0, 0.0, 0.0, 0.0, 1.7161968930997145E9, 0.0, 2024-05-20 12:21:33.099
60.0, 5837.58274764809, -113891.77160164973, -76012.44908719648, -27304.488695202912, -68704.99327242294, -15259.625346615952, -168556.0248560935, -187500.02235174447, 0.646, 0.078, 0.742, 192.0, 0.0, 0.0, 0.0, 0.0, 0.0, 0.0, 0.0, 0.0, 0.0, 1.716196893104695E9, 0.0, 2024-05-20 12:21:33.104
61.0, 5870.037480597196, -113899.90763663145, -76054.80564293929, -27300.666546901055, -68728.10497618973, -15262.68753560633, -168616.97806322316, -187500.02235174447, 0.646, 0.078, 0.742, 192.0, 0.0, 0.0, 0.0, 0.0, 0.0, 0.0, 0.0, 0.0, 0.0, 1.7161968931097388E9, 0.0, 2024-05-20 12:21:33.109
62.0, 5823.590555619068, -113922.8405264426, -76111.42261164458, -27311.574198195245, -68765.61120338574, -15279.227826503256, -168693.80100891602, -187500.02235174447, 0.646, 0.078, 0.742, 192.0, 0.0, 0.0, 0.0, 0.0, 0.0, 0.0, 0.0, 0.0, 0.0, 1.7161968931137576E9, 0.0, 2024-05-20 12:21:33.113
63.0, 5791.873430236988, -114013.76742288678, -76236.30180791639, -27387.88305376566, -68870.28442266994, -15361.504597843243, -168838.72971996423, -187500.02235174447, 0.646, 0.078, 0.742, 192.0, 0.0, 0.0, 0.0, 0.0, 0.0, 0.0, 0.0, 0.0, 0.0, 1.7161968931187775E9, 0.0, 2024-05-20 12:21:33.118
64.0, 5797.059034950618, -114085.56122607723, -76340.79621324495, -27441.99662709196, -68956.2715835895, -15422.502508461776, -168963.74302670278, -187500.02235174447, 0.646, 0.078, 0.742, 192.0, 0.0, 0.0, 0.0, 0.0, 0.0, 0.0, 0.0, 0.0, 0.0, 1.7161968931227937E9, 0.0, 2024-05-20 12:21:33.122
65.0, 5858.861608369542, -114142.4911192049, -76430.47141199964, -27478.988764165493, -69025.38317744531, -15467.787142728228, -169072.75248441132, -187500.02235174447, 0.646, 0.076, 0.754, 192.0, 20.0, 48.0, 2.0, 96.0, 23.0, 144.0, 0.0, 0.0, 0.0, 1.716196893125815E9, 0.0, 2024-05-20 12:21:33.125
66.0, 5860.87326537052, -114151.23065128693, -76472.8503194869, -27467.6340779822, -69043.80101487649, -15464.859064204582, -169133.99626421885, -187500.02235174447, 0.646, 0.076, 0.754, 192.0, 0.0, 0.0, 0.0, 0.0, 0.0, 0.0, 0.0, 0.0, 0.0, 1.716196893128913E9, 0.0, 2024-05-20 12:21:33.128
67.0, 5824.886956797476, -114191.06145990628, -76547.19222154525, -27492.06453467185, -69095.4558963127, -15494.653939563506, -169227.9853496534, -187500.02235174447, 0.646, 0.076, 0.754, 192.0, 0.0, 0.0, 0.0, 0.0, 0.0, 0.0, 0.0, 0.0, 0.0, 1.7161968931328115E9, 0.0, 2024-05-20 12:21:33.132
68.0, 5779.33410159756, -114247.65607686712, -76638.02971101162, -27529.034320000927, -69165.55096692455, -15541.100864541635, -169336.90540038413, -187500.02235174447, 0.646, 0.076, 0.754, 192.0, 0.0, 0.0, 0.0, 0.0, 0.0, 0.0, 0.0, 0.0, 0.0, 1.716196893136814E9, 0.0, 2024-05-20 12:21:33.136
69.0, 5787.604247046023, -114282.2789290284, -76705.53197926664, -27543.093567263317, -69211.75202271367, -15564.547844475252, -169422.6913956036, -187500.02235174447, 0.646, 0.076, 0.754, 192.0, 0.0, 0.0, 0.0, 0.0, 0.0, 0.0, 0.0, 0.0, 0.0, 1.716196893140949E9, 0.0, 2024-05-20 12:21:33.140
70.0, 5840.980212805297, -114315.22540035551, -76770.68731435387, -27558.002180815005, -69256.45551162428, -15585.849056941159, -169508.6115012898, -187500.02235174447, 0.646, 0.076, 0.754, 192.0, 0.0, 0.0, 0.0, 0.0, 0.0, 0.0, 0.0, 0.0, 0.0, 1.716196893144864E9, 0.0, 2024-05-20 12:21:33.144
71.0, 5844.958823318341, -114304.85419092825, -76792.79318962016, -27529.369596167755, -69254.33209590103, -15562.357373518631, -169547.99527502005, -187500.02235174447, 0.646, 0.076, 0.754, 192.0, 0.0, 0.0, 0.0, 0.0, 0.0, 0.0, 0.0, 0.0, 0.0, 1.7161968931479397E9, 0.0, 2024-05-20 12:21:33.147
72.0, 5794.153308171429, -114265.04573405335, -76784.21011974933, -27473.043200140382, -69220.75977572915, -15509.987236259847, -169548.44230990915, -187500.02235174447, 0.646, 0.076, 0.754, 192.0, 0.0, 0.0, 0.0, 0.0, 0.0, 0.0, 0.0, 0.0, 0.0, 1.7161968931519308E9, 0.0, 2024-05-20 12:21:33.151
73.0, 5797.3943111174485, -114416.88113413825, -76970.55661327322, -27606.706631983117, -69383.81575153062, -15646.534043137319, -169747.6187047504, -187500.02235174447, 0.646, 0.076, 0.754, 192.0, 0.0, 0.0, 0.0, 0.0, 0.0, 0.0, 0.0, 0.0, 0.0, 1.7161968931559336E9, 0.0, 2024-05-20 12:21:33.155
74.0, 5813.4205118919035, -114526.69525464717, -77116.4017458441, -27694.414877225743, -69503.12936343305, -15738.332657615265, -169909.24416890673, -187500.02235174447, 0.646, 0.076, 0.754, 192.0, 0.0, 0.0, 0.0, 0.0, 0.0, 0.0, 0.0, 0.0, 0.0, 1.716196893159932E9, 0.0, 2024-05-20 12:21:33.159
75.0, 5864.069564827629, -114571.82342670244, -77195.8174938938, -27716.16312458076, -69556.93001233698, -15767.345221918253, -170005.91546367592, -187500.02235174447, 0.65, 0.076, 0.76, 192.0, 20.0, 80.0, 2.0, 96.0, 23.0, 192.0, 0.0, 0.0, 0.0, 1.7161968931649413E9, 0.0, 2024-05-20 12:21:33.164
76.0, 5873.032614354207, -114572.62808950283, -77232.11672688923, -27697.074734815924, -69568.48586422038, -15754.381210134175, -170059.11261547956, -187500.02235174447, 0.65, 0.076, 0.76, 192.0, 0.0, 0.0, 0.0, 0.0, 0.0, 0.0, 0.0, 0.0, 0.0, 1.716196893168972E9, 0.0, 2024-05-20 12:21:33.168
77.0, 5822.204747462839, -114593.70578452418, -77286.52087289344, -27698.885226116807, -69600.24769309135, -15759.343297403253, -170130.5487907587, -187500.02235174447, 0.65, 0.076, 0.76, 192.0, 0.0, 0.0, 0.0, 0.0, 0.0, 0.0, 0.0, 0.0, 0.0, 1.7161968931729968E9, 0.0, 2024-05-20 12:21:33.172
78.0, 5784.05031967763, -114672.67449768478, -77399.97832774858, -27756.351561111398, -69688.02299356736, -15820.251801043965, -170260.14420511058, -187500.02235174447, 0.65, 0.076, 0.76, 192.0, 0.0, 0.0, 0.0, 0.0, 0.0, 0.0, 0.0, 0.0, 0.0, 1.7161968931769826E9, 0.0, 2024-05-20 12:21:33.176
79.0, 5796.321427383594, -114730.07377744601, -77493.14039863831, -27792.06964875098, -69753.22303214348, -15858.294470106897, -170370.65122969763, -187500.02235174447, 0.65, 0.076, 0.76, 192.0, 0.0, 0.0, 0.0, 0.0, 0.0, 0.0, 0.0, 0.0, 0.0, 1.716196893179987E9, 0.0, 2024-05-20 12:21:33.179
80.0, 5849.92091058742, -114774.15141751188, -77572.86907111038, -27812.230922249666, -69803.38034670119, -15881.160304684676, -170466.20493724407, -187500.02235174447, 0.65, 0.076, 0.76, 192.0, 0.0, 0.0, 0.0, 0.0, 0.0, 0.0, 0.0, 0.0, 0.0, 1.7161968931840248E9, 0.0, 2024-05-20 12:21:33.184
81.0, 5856.514675201735, -114771.98329829972, -77604.38503079237, -27785.58764285894, -69805.05672753534, -15859.121484651743, -170512.62951047774, -187500.02235174447, 0.65, 0.076, 0.76, 192.0, 0.0, 0.0, 0.0, 0.0, 0.0, 0.0, 0.0, 0.0, 0.0, 1.7161968931899953E9, 0.0, 2024-05-20 12:21:33.189
82.0, 5820.193090461861, -114826.02981639265, -77691.84740684598, -27814.957835073215, -69863.66300149716, -15893.118487968266, -170616.14043905027, -187500.02235174447, 0.65, 0.076, 0.76, 192.0, 0.0, 0.0, 0.0, 0.0, 0.0, 0.0, 0.0, 0.0, 0.0, 1.716196893193029E9, 0.0, 2024-05-20 12:21:33.193
83.0, 5781.055185920619, -114905.55732316463, -77803.78494307816, -27866.83623395398, -69948.15259553821, -15949.53429097346, -170744.4394522237, -187500.02235174447, 0.65, 0.076, 0.76, 192.0, 0.0, 0.0, 0.0, 0.0, 0.0, 0.0, 0.0, 0.0, 0.0, 1.7161968931970456E9, 0.0, 2024-05-20 12:21:33.197
84.0, 5797.796642517644, -114970.33267859611, -77902.2890808927, -27905.214179183746, -70018.4264801057, -15992.270826372007, -170859.57328791302, -187500.02235174447, 0.65, 0.076, 0.76, 192.0, 0.0, 0.0, 0.0, 0.0, 0.0, 0.0, 0.0, 0.0, 0.0, 1.7161968932010705E9, 0.0, 2024-05-20 12:21:33.201
85.0, 5859.420401980925, -115048.92141210097, -78017.33350960416, -27958.500737965198, -70103.96660613616, -16048.910146821756, -170989.32516447606, -187500.02235174447, 0.642, 0.08, 0.746, 192.0, 20.0, 16.0, 2.0, 128.0, 23.0, 80.0, 0.0, 0.0, 0.0, 1.7161968932051458E9, 0.0, 2024-05-20 12:21:33.205
86.0, 5873.144373076484, -115074.87178741358, -78077.88438533359, -27958.43368273183, -70137.67303677477, -16054.453379446672, -171065.52226132422, -187500.02235174447, 0.642, 0.08, 0.746, 192.0, 0.0, 0.0, 0.0, 0.0, 0.0, 0.0, 0.0, 0.0, 0.0, 1.7161968932081008E9, 0.0, 2024-05-20 12:21:33.208
87.0, 5810.827709535088, -115055.98456334884, -78090.60252792866, -27915.47362988873, -70123.68084474574, -16014.734329549592, -171089.9750697583, -187500.02235174447, 0.642, 0.08, 0.746, 192.0, 0.0, 0.0, 0.0, 0.0, 0.0, 0.0, 0.0, 0.0, 0.0, 1.7161968932131188E9, 0.0, 2024-05-20 12:21:33.213
88.0, 5791.314636625604, -115143.40223591356, -78210.56434042029, -27976.896223651915, -70214.22776153419, -16077.296862279996, -171216.57535035317, -187500.02235174447, 0.642, 0.08, 0.746, 192.0, 0.0, 0.0, 0.0, 0.0, 0.0, 0.0, 0.0, 0.0, 0.0, 1.7161968932182083E9, 0.0, 2024-05-20 12:21:33.218
89.0, 5805.932677499375, -115254.31159190078, -78357.32589451384, -28058.65890486943, -70328.73574837873, -16162.546415632538, -171375.2056807525, -187500.02235174447, 0.642, 0.08, 0.746, 192.0, 0.0, 0.0, 0.0, 0.0, 0.0, 0.0, 0.0, 0.0, 0.0, 1.716196893221226E9, 0.0, 2024-05-20 12:21:33.221
90.0, 5861.901445615465, -115303.97716808048, -78443.33540717786, -28080.518910946717, -70383.34106008304, -16189.05558455653, -171474.15685345614, -187500.02235174447, 0.642, 0.08, 0.746, 192.0, 0.0, 0.0, 0.0, 0.0, 0.0, 0.0, 0.0, 0.0, 0.0, 1.7161968932272005E9, 0.0, 2024-05-20 12:21:33.227
91.0, 5878.888771401497, -115343.11507262172, -78519.75602147056, -28091.06893432962, -70428.08925248256, -16203.941846363765, -171562.2897818434, -187500.02235174447, 0.642, 0.08, 0.746, 192.0, 0.0, 0.0, 0.0, 0.0, 0.0, 0.0, 0.0, 0.0, 0.0, 1.7161968932312224E9, 0.0, 2024-05-20 12:21:33.231
92.0, 5817.622639849501, -115349.68648549158, -78561.12910045733, -28068.337210218575, -70438.25929620973, -16183.802924609534, -171614.41404991318, -187500.02235174447, 0.642, 0.08, 0.746, 192.0, 0.0, 0.0, 0.0, 0.0, 0.0, 0.0, 0.0, 0.0, 0.0, 1.7161968932341948E9, 0.0, 2024-05-20 12:21:33.234
93.0, 5788.520668568692, -115439.51814645746, -78686.16475894031, -28129.491583048297, -70532.96363746686, -16245.627849772913, -171751.45259516867, -187500.02235174447, 0.642, 0.08, 0.746, 192.0, 0.0, 0.0, 0.0, 0.0, 0.0, 0.0, 0.0, 0.0, 0.0, 1.716196893237198E9, 0.0, 2024-05-20 12:21:33.237
94.0, 5795.874392494487, -115532.59081036935, -78816.0060424812, -28193.90931056849, -70630.23842933637, -16309.017397048165, -171894.1237800269, -187500.02235174447, 0.656, 0.084, 0.75, 192.0, 20.0, 128.0, 2.0, 160.0, 23.0, 112.0, 0.0, 0.0, 0.0, 1.71619689324127E9, 0.0, 2024-05-20 12:21:33.241
95.0, 5845.405858207448, -115562.72096189512, -78882.41307525791, -28195.25041523581, -70663.69899078595, -16310.157336015385, -171973.24895539868, -187500.02235174447, 0.656, 0.084, 0.75, 192.0, 0.0, 0.0, 0.0, 0.0, 0.0, 0.0, 0.0, 0.0, 0.0, 1.716196893244205E9, 0.0, 2024-05-20 12:21:33.244
96.0, 5883.582637737112, -115636.72758778663, -78992.4954167003, -28238.43398552346, -70740.07490158975, -16354.19027259234, -172094.70833476883, -187500.02235174447, 0.656, 0.084, 0.75, 192.0, 0.0, 0.0, 0.0, 0.0, 0.0, 0.0, 0.0, 0.0, 0.0, 1.7161968932482529E9, 0.0, 2024-05-20 12:21:33.248
97.0, 5826.071599253607, -115687.5107511891, -79079.04137123124, -28256.650657254537, -70791.93094872606, -16376.05027866963, -172191.22316732685, -187500.02235174447, 0.656, 0.084, 0.75, 192.0, 0.0, 0.0, 0.0, 0.0, 0.0, 0.0, 0.0, 0.0, 0.0, 1.7161968932522612E9, 0.0, 2024-05-20 12:21:33.252
98.0, 5781.122241153985, -115775.59897608745, -79202.08772445771, -28310.65247185856, -70880.44385676907, -16433.58366889759, -172324.3725090471, -187500.02235174447, 0.656, 0.084, 0.75, 192.0, 0.0, 0.0, 0.0, 0.0, 0.0, 0.0, 0.0, 0.0, 0.0, 1.7161968932572827E9, 0.0, 2024-05-20 12:21:33.257
99.0, 5784.05031967763, -115828.99729359118, -79289.39363830014, -28329.673806390027, -70933.50689810597, -16455.913061608444, -172423.23427477293, -187500.02235174447, 0.656, 0.084, 0.75, 192.0, 0.0, 0.0, 0.0, 0.0, 0.0, 0.0, 0.0, 0.0, 0.0, 1.716196893261316E9, 0.0, 2024-05-20 12:21:33.261
100.0, 5850.747925132266, -115870.30331734459, -79367.11065377125, -28339.0391873168, -70974.76821837047, -16467.670079191932, -172512.86477003872, -187500.02235174447, 0.656, 0.084, 0.75, 192.0, 0.0, 0.0, 0.0, 0.0, 0.0, 0.0, 0.0, 0.0, 0.0, 1.7161968932643168E9, 0.0, 2024-05-20 12:21:33.264
101.0, 5849.987965820786, -115883.1555704064, -79416.53036076193, -28320.554294652262, -70988.49218946602, -16451.7332853953, -172573.08036960132, -187500.02235174447, 0.656, 0.084, 0.75, 192.0, 0.0, 0.0, 0.0, 0.0, 0.0, 0.0, 0.0, 0.0, 0.0, 1.7161968932683773E9, 0.0, 2024-05-20 12:21:33.268
102.0, 5815.320410170604, -115885.2566343852, -79453.85777400229, -28294.80508503975, -70992.62726219026, -16426.72168334981, -172614.72166952153, -187500.02235174447, 0.656, 0.084, 0.75, 192.0, 0.0, 0.0, 0.0, 0.0, 0.0, 0.0, 0.0, 0.0, 0.0, 1.7161968932723224E9, 0.0, 2024-05-20 12:21:33.272
103.0, 5809.441901378858, -116064.18234874992, -79670.75910219659, -28442.371301933683, -71174.57046205646, -16573.170313020983, -172836.58508498492, -187500.02235174447, 0.656, 0.084, 0.75, 192.0, 0.0, 0.0, 0.0, 0.0, 0.0, 0.0, 0.0, 0.0, 0.0, 1.7161968932763207E9, 0.0, 2024-05-20 12:21:33.276
104.0, 5808.413721133915, -116170.88957677956, -79814.21259811075, -28512.376965567706, -71281.7247249752, -16645.411151100536, -172989.56042403704, -187500.02235174447, 0.642, 0.082, 0.756, 192.0, 20.0, 16.0, 2.0, 144.0, 23.0, 160.0, 0.0, 0.0, 0.0, 1.7161968932804036E9, 0.0, 2024-05-20 12:21:33.280
105.0, 5849.58563442059, -116235.46376651095, -79915.01896560419, -28538.461451347048, -71345.27073446164, -16675.67541309302, -173099.866282924, -187500.02235174447, 0.642, 0.082, 0.756, 192.0, 0.0, 0.0, 0.0, 0.0, 0.0, 0.0, 0.0, 0.0, 0.0, 1.7161968932853844E9, 0.0, 2024-05-20 12:21:33.285
106.0, 5863.957806105353, -116244.96325790446, -79960.61652429301, -28512.131096378696, -71353.92085956584, -16652.094322692672, -173154.20337369482, -187500.02235174447, 0.642, 0.082, 0.756, 192.0, 0.0, 0.0, 0.0, 0.0, 0.0, 0.0, 0.0, 0.0, 0.0, 1.7161968932883973E9, 0.0, 2024-05-20 12:21:33.288
107.0, 5812.794663047155, -116260.3859615786, -80012.71844061834, -28493.10976184723, -71366.92957483882, -16632.737711994378, -173213.5249034792, -187500.02235174447, 0.642, 0.082, 0.756, 192.0, 0.0, 0.0, 0.0, 0.0, 0.0, 0.0, 0.0, 0.0, 0.0, 1.7161968932913857E9, 0.0, 2024-05-20 12:21:33.291
108.0, 5797.997808217741, -116404.84528599326, -80198.0814573862, -28599.19114103212, -71511.05362308666, -16741.27778306935, -173404.76642903883, -187500.02235174447, 0.642, 0.082, 0.756, 192.0, 0.0, 0.0, 0.0, 0.0, 0.0, 0.0, 0.0, 0.0, 0.0, 1.7161968932964423E9, 0.0, 2024-05-20 12:21:33.296
109.0, 5800.836479763566, -116503.9529209081, -80333.8683049522, -28655.584592292857, -71606.22735097735, -16801.985121009962, -173548.35403541973, -187500.02235174447, 0.642, 0.082, 0.756, 192.0, 0.0, 0.0, 0.0, 0.0, 0.0, 0.0, 0.0, 0.0, 0.0, 1.7161968933014867E9, 0.0, 2024-05-20 12:21:33.301
110.0, 5849.540930931679, -116555.13841571074, -80422.71648916203, -28666.849871498333, -71655.3117818012, -16816.871382817197, -173645.3382546113, -187500.02235174447, 0.642, 0.082, 0.756, 192.0, 0.0, 0.0, 0.0, 0.0, 0.0, 0.0, 0.0, 0.0, 0.0, 1.7161968933065012E9, 0.0, 2024-05-20 12:21:33.306
111.0, 5872.4738207428245, -116618.1256315858, -80524.9533683006, -28691.660307843726, -71716.39909939756, -16842.464130218523, -173752.85014544133, -187500.02235174447, 0.642, 0.082, 0.756, 192.0, 0.0, 0.0, 0.0, 0.0, 0.0, 0.0, 0.0, 0.0, 0.0, 1.7161968933094757E9, 0.0, 2024-05-20 12:21:33.309
112.0, 5817.756750316233, -116641.50555628605, -80585.43718879667, -28677.466950114605, -71734.4816606619, -16828.159013767126, -173817.53609389497, -187500.02235174447, 0.642, 0.082, 0.756, 192.0, 0.0, 0.0, 0.0, 0.0, 0.0, 0.0, 0.0, 0.0, 0.0, 1.7161968933124788E9, 0.0, 2024-05-20 12:21:33.312
113.0, 5775.400194573426, -116727.2021445277, -80707.54476875601, -28724.763241382032, -71816.11023141268, -16875.00827014545, -173947.39972918032, -187500.02235174447, 0.642, 0.082, 0.756, 192.0, 0.0, 0.0, 0.0, 0.0, 0.0, 0.0, 0.0, 0.0, 0.0, 1.7161968933154864E9, 0.0, 2024-05-20 12:21:33.315
114.0, 5784.854982478021, -116799.10770644042, -80816.39776425336, -28756.8379946754, -71882.80783686732, -16906.077194938327, -174064.07583523702, -187500.02235174447, 0.646, 0.084, 0.758, 192.0, 20.0, 48.0, 2.0, 160.0, 23.0, 176.0, 0.0, 0.0, 0.0, 1.7161968933195343E9, 0.0, 2024-05-20 12:21:33.319
115.0, 5856.201750779361, -116891.21924534075, -80949.2118298068, -28809.208131934185, -71972.25951817745, -16957.374448463255, -174202.25431945972, -187500.02235174447, 0.646, 0.084, 0.758, 192.0, 0.0, 0.0, 0.0, 0.0, 0.0, 0.0, 0.0, 0.0, 0.0, 1.7161968933235185E9, 0.0, 2024-05-20 12:21:33.323
116.0, 5852.938396088886, -116875.30480328857, -80972.50234752923, -28755.496890008082, -71951.07006443382, -16902.970302459038, -174227.48943894976, -187500.02235174447, 0.646, 0.084, 0.758, 192.0, 0.0, 0.0, 0.0, 0.0, 0.0, 0.0, 0.0, 0.0, 0.0, 1.7161968933285413E9, 0.0, 2024-05-20 12:21:33.328
117.0, 5829.53611964418, -116913.97332119624, -81048.85590658855, -28759.631962732314, -71983.88242529421, -16903.886723981705, -174299.99849796278, -187500.02235174447, 0.646, 0.084, 0.758, 192.0, 0.0, 0.0, 0.0, 0.0, 0.0, 0.0, 0.0, 0.0, 0.0, 1.7161968933325884E9, 0.0, 2024-05-20 12:21:33.332
118.0, 5805.642104821456, -117078.39275340948, -81250.75921425334, -28884.801731682033, -72144.5244126945, -17026.016655685504, -174501.23125329392, -187500.02235174447, 0.646, 0.084, 0.758, 192.0, 0.0, 0.0, 0.0, 0.0, 0.0, 0.0, 0.0, 0.0, 0.0, 1.7161968933365755E9, 0.0, 2024-05-20 12:21:33.336
119.0, 5797.059034950618, -117160.11073113809, -81370.18458487805, -28926.688900791276, -72221.12384094285, -17065.825112560407, -174625.8198768878, -187500.02235174447, 0.646, 0.084, 0.758, 192.0, 0.0, 0.0, 0.0, 0.0, 0.0, 0.0, 0.0, 0.0, 0.0, 1.7161968933396184E9, 0.0, 2024-05-20 12:21:33.339
120.0, 5851.843160610576, -117230.49637442785, -81479.41756003113, -28957.06492150604, -72287.2626527861, -17096.178781530714, -174739.25497999848, -187500.02235174447, 0.646, 0.084, 0.758, 192.0, 0.0, 0.0, 0.0, 0.0, 0.0, 0.0, 0.0, 0.0, 0.0, 1.7161968933436286E9, 0.0, 2024-05-20 12:21:33.343
121.0, 5879.536971990701, -117289.66144200104, -81576.84881411181, -28974.92396532583, -72341.62209530141, -17114.238991050603, -174840.37427191428, -187500.02235174447, 0.646, 0.084, 0.758, 192.0, 0.0, 0.0, 0.0, 0.0, 0.0, 0.0, 0.0, 0.0, 0.0, 1.7161968933476515E9, 0.0, 2024-05-20 12:21:33.347
122.0, 5839.594404649068, -117358.43775969003, -81684.18189098619, -29004.07064009555, -72406.77743038863, -17143.139796631312, -174951.90947674628, -187500.02235174447, 0.646, 0.084, 0.758, 192.0, 0.0, 0.0, 0.0, 0.0, 0.0, 0.0, 0.0, 0.0, 0.0, 1.7161968933516624E9, 0.0, 2024-05-20 12:21:33.351
123.0, 5801.730549541778, -117479.33834544878, -81845.89676212035, -29082.949946278328, -72523.5652951676, -17222.89082084785, -175116.88770257088, -187500.02235174447, 0.646, 0.084, 0.758, 192.0, 0.0, 0.0, 0.0, 0.0, 0.0, 0.0, 0.0, 0.0, 0.0, 1.7161968933556933E9, 0.0, 2024-05-20 12:21:33.355
124.0, 5810.872413023998, -117595.72387882757, -82003.11893261898, -29156.308371580646, -72636.21808722235, -17296.495115339174, -175277.79791090466, -187500.02235174447, 0.658, 0.09, 0.764, 192.0, 20.0, 144.0, 2.0, 208.0, 23.0, 224.0, 0.0, 0.0, 0.0, 1.716196893360654E9, 0.0, 2024-05-20 12:21:33.360
125.0, 5859.152181047461, -117679.74408623506, -82128.7357364578, -29193.97106098784, -72716.37144283908, -17337.264697225655, -175404.75581941078, -187500.02235174447, 0.658, 0.09, 0.764, 192.0, 0.0, 0.0, 0.0, 0.0, 0.0, 0.0, 0.0, 0.0, 0.0, 1.7161968933657763E9, 0.0, 2024-05-20 12:21:33.365
126.0, 5868.472858485325, -117697.71488877713, -82187.00673425279, -29167.05956066365, -72727.14498366654, -17312.47661262472, -175463.87618349507, -187500.02235174447, 0.658, 0.09, 0.764, 192.0, 0.0, 0.0, 0.0, 0.0, 0.0, 0.0, 0.0, 0.0, 0.0, 1.7161968933697248E9, 0.0, 2024-05-20 12:21:33.369
127.0, 5828.9773260327975, -117758.24341276211, -82287.63428779057, -29184.940956227896, -72780.65505989255, -17327.832261065516, -175564.70490273298, -187500.02235174447, 0.658, 0.09, 0.764, 192.0, 0.0, 0.0, 0.0, 0.0, 0.0, 0.0, 0.0, 0.0, 0.0, 1.7161968933727295E9, 0.0, 2024-05-20 12:21:33.372
128.0, 5782.95508419932, -117855.54055637606, -82426.19275166902, -29238.62984640954, -72872.02899122584, -17377.341375034022, -175702.95044218903, -187500.02235174447, 0.658, 0.09, 0.764, 192.0, 0.0, 0.0, 0.0, 0.0, 0.0, 0.0, 0.0, 0.0, 0.0, 1.7161968933757477E9, 0.0, 2024-05-20 12:21:33.375
129.0, 5797.3943111174485, -117952.25655463416, -82565.0417882254, -29290.620004012588, -72963.4699777925, -17427.45398610282, -175839.2513798775, -187500.02235174447, 0.658, 0.09, 0.764, 192.0, 0.0, 0.0, 0.0, 0.0, 0.0, 0.0, 0.0, 0.0, 0.0, 1.7161968933817537E9, 0.0, 2024-05-20 12:21:33.381
130.0, 5862.393183993481, -118055.3651518065, -82710.64105160726, -29347.5275453958, -73060.54360396191, -17482.573387929606, -175981.25201240208, -187500.02235174447, 0.658, 0.09, 0.764, 192.0, 0.0, 0.0, 0.0, 0.0, 0.0, 0.0, 0.0, 0.0, 0.0, 1.71619689338477E9, 0.0, 2024-05-20 12:21:33.384
131.0, 5881.660387713956, -118122.04040551669, -82818.95760523768, -29365.118368282125, -73118.38991861224, -17498.912513126437, -176086.32756308647, -187500.02235174447, 0.658, 0.09, 0.764, 192.0, 0.0, 0.0, 0.0, 0.0, 0.0, 0.0, 0.0, 0.0, 0.0, 1.7161968933898132E9, 0.0, 2024-05-20 12:21:33.389
132.0, 5827.345648687559, -118155.92565011092, -82891.98075437317, -29351.57321114221, -73143.35681716881, -17484.94267284187, -176158.12136627693, -187500.02235174447, 0.658, 0.09, 0.764, 192.0, 0.0, 0.0, 0.0, 0.0, 0.0, 0.0, 0.0, 0.0, 0.0, 1.716196893392811E9, 0.0, 2024-05-20 12:21:33.392
133.0, 5799.808299518621, -118277.69795390344, -83055.75198599721, -29427.747956245898, -73258.71417030266, -17559.642202811505, -176320.48443800028, -187500.02235174447, 0.656, 0.08600000000000001, 0.75, 192.0, 20.0, 128.0, 2.0, 176.0, 23.0, 112.0, 0.0, 0.0, 0.0, 1.716196893396822E9, 0.0, 2024-05-20 12:21:33.396
134.0, 5803.988075731764, -118401.7948391193, -83220.9984327553, -29501.30754724831, -73373.82565424748, -17633.559421725204, -176484.0545039242, -187500.02235174447, 0.656, 0.08600000000000001, 0.75, 192.0, 0.0, 0.0, 0.0, 0.0, 0.0, 0.0, 0.0, 0.0, 0.0, 1.7161968933998387E9, 0.0, 2024-05-20 12:21:33.399
135.0, 5849.898558842964, -118469.34181086325, -83329.49380034136, -29518.98777711246, -73430.42027120832, -17650.032657388765, -176589.3759237976, -187500.02235174447, 0.656, 0.08600000000000001, 0.75, 192.0, 0.0, 0.0, 0.0, 0.0, 0.0, 0.0, 0.0, 0.0, 0.0, 1.7161968934038856E9, 0.0, 2024-05-20 12:21:33.403
136.0, 5898.73712047781, -118566.37073354374, -83469.05809272028, -29566.3287718688, -73518.08381296204, -17696.479582366894, -176726.12389637518, -187500.02235174447, 0.656, 0.08600000000000001, 0.75, 192.0, 0.0, 0.0, 0.0, 0.0, 0.0, 0.0, 0.0, 0.0, 0.0, 1.7161968934078574E9, 0.0, 2024-05-20 12:21:33.407
137.0, 5836.040477280674, -118627.5474581179, -83572.36785559272, -29577.482292351997, -73568.77756938667, -17708.21424820593, -176824.3374615118, -187500.02235174447, 0.656, 0.08600000000000001, 0.75, 192.0, 0.0, 0.0, 0.0, 0.0, 0.0, 0.0, 0.0, 0.0, 0.0, 1.716196893411872E9, 0.0, 2024-05-20 12:21:33.411
138.0, 5787.157212156918, -118712.48408704807, -83697.53762454244, -29610.607577634764, -73642.71714004483, -17742.121844544632, -176945.4168612262, -187500.02235174447, 0.656, 0.08600000000000001, 0.75, 192.0, 0.0, 0.0, 0.0, 0.0, 0.0, 0.0, 0.0, 0.0, 0.0, 1.7161968934178786E9, 0.0, 2024-05-20 12:21:33.417
139.0, 5792.901610481931, -118815.83855340941, -83841.37110011233, -29659.468491014064, -73735.43217604545, -17790.848647457202, -177083.3494762599, -187500.02235174447, 0.656, 0.08600000000000001, 0.75, 192.0, 0.0, 0.0, 0.0, 0.0, 0.0, 0.0, 0.0, 0.0, 0.0, 1.7161968934208984E9, 0.0, 2024-05-20 12:21:33.420
140.0, 5853.720707144822, -118897.19890322673, -83964.39510159435, -29685.888252960238, -73806.48837166886, -17817.380168125652, -177201.00905907265, -187500.02235174447, 0.656, 0.08600000000000001, 0.75, 192.0, 0.0, 0.0, 0.0, 0.0, 0.0, 0.0, 0.0, 0.0, 0.0, 1.7161968934248996E9, 0.0, 2024-05-20 12:21:33.424
141.0, 5868.986948607797, -118930.88298212088, -84041.0839368205, -29668.07391262936, -73831.81289813673, -17799.521124305862, -177272.22171690725, -187500.02235174447, 0.656, 0.08600000000000001, 0.75, 192.0, 0.0, 0.0, 0.0, 0.0, 0.0, 0.0, 0.0, 0.0, 0.0, 1.716196893427935E9, 0.0, 2024-05-20 12:21:33.427
142.0, 5831.905404556443, -118974.9829739312, -84129.28392044114, -29664.49763351651, -73867.26276484285, -17793.86613295867, -177347.27887478817, -187500.02235174447, 0.656, 0.08600000000000001, 0.75, 192.0, 0.0, 0.0, 0.0, 0.0, 0.0, 0.0, 0.0, 0.0, 0.0, 1.716196893431926E9, 0.0, 2024-05-20 12:21:33.431
143.0, 5831.860701067531, -119167.72206636932, -84367.70997854591, -29806.028879407513, -74051.64230485467, -17931.955210203556, -177570.72926410785, -187500.02235174447, 0.664, 0.08600000000000001, 0.754, 192.0, 20.0, 192.0, 2.0, 176.0, 23.0, 144.0, 0.0, 0.0, 0.0, 1.7161968934369743E9, 0.0, 2024-05-20 12:21:33.436
144.0, 5825.959840531331, -119333.99669337233, -84577.79402468134, -29914.613653971395, -74207.25514975253, -18039.444749289127, -177772.2525921169, -187500.02235174447, 0.664, 0.08600000000000001, 0.754, 192.0, 0.0, 0.0, 0.0, 0.0, 0.0, 0.0, 0.0, 0.0, 0.0, 1.716196893441967E9, 0.0, 2024-05-20 12:21:33.441
145.0, 5858.593387436079, -119401.34249941618, -84687.49638646799, -29923.666110475795, -74263.08980740188, -18049.61479301629, -177876.34466604528, -187500.02235174447, 0.664, 0.08600000000000001, 0.754, 192.0, 0.0, 0.0, 0.0, 0.0, 0.0, 0.0, 0.0, 0.0, 0.0, 1.7161968934449835E9, 0.0, 2024-05-20 12:21:33.444
146.0, 5884.454355770869, -119445.08486331522, -84775.24933519952, -29913.406659770808, -74297.06445897394, -18038.86360393329, -177957.63796062925, -187500.02235174447, 0.664, 0.08600000000000001, 0.754, 192.0, 0.0, 0.0, 0.0, 0.0, 0.0, 0.0, 0.0, 0.0, 0.0, 1.716196893450111E9, 0.0, 2024-05-20 12:21:33.450
147.0, 5836.956898803342, -119488.78252372534, -84862.89052520879, -29905.67295618927, -74330.32385472344, -18028.402987528203, -178035.779659245, -187500.02235174447, 0.664, 0.08600000000000001, 0.754, 192.0, 0.0, 0.0, 0.0, 0.0, 0.0, 0.0, 0.0, 0.0, 0.0, 1.7161968934530368E9, 0.0, 2024-05-20 12:21:33.453
148.0, 5811.922945013398, -119643.21072616706, -85063.6315421619, -30006.79224810508, -74474.71612390473, -18126.39303522027, -178228.1164202829, -187500.02235174447, 0.664, 0.08600000000000001, 0.754, 192.0, 0.0, 0.0, 0.0, 0.0, 0.0, 0.0, 0.0, 0.0, 0.0, 1.71619689345903E9, 0.0, 2024-05-20 12:21:33.459
149.0, 5808.972514745297, -119758.90335546773, -85224.16177083991, -30066.0467226561, -74579.0540670221, -18182.853541714376, -178379.92946862336, -187500.02235174447, 0.664, 0.08600000000000001, 0.754, 192.0, 0.0, 0.0, 0.0, 0.0, 0.0, 0.0, 0.0, 0.0, 0.0, 1.7161968934620547E9, 0.0, 2024-05-20 12:21:33.462
150.0, 5853.676003655912, -119841.22483029662, -85352.23726656882, -30091.460656101783, -74648.72445448929, -18206.814611770467, -178497.94667934737, -187500.02235174447, 0.664, 0.08600000000000001, 0.754, 192.0, 0.0, 0.0, 0.0, 0.0, 0.0, 0.0, 0.0, 0.0, 0.0, 1.7161968934650533E9, 0.0, 2024-05-20 12:21:33.465
151.0, 5882.3979952809805, -119892.32091812146, -85449.93674158296, -30087.660859544383, -74686.81182704114, -18199.03620470002, -178584.13500596702, -187500.02235174447, 0.664, 0.08600000000000001, 0.754, 192.0, 0.0, 0.0, 0.0, 0.0, 0.0, 0.0, 0.0, 0.0, 0.0, 1.716196893470132E9, 0.0, 2024-05-20 12:21:33.470
152.0, 5845.674079140911, -119967.64629693584, -85572.11137677568, -30105.72106906427, -74749.59787721609, -18215.5988473414, -178693.79266426477, -187500.02235174447, 0.664, 0.08600000000000001, 0.754, 192.0, 0.0, 0.0, 0.0, 0.0, 0.0, 0.0, 0.0, 0.0, 0.0, 1.7161968934740875E9, 0.0, 2024-05-20 12:21:33.474
153.0, 5790.331159869571, -120080.16497852386, -85730.42878275261, -30160.818119146603, -74850.87363134309, -18269.46655147869, -178840.57657010277, -187500.02235174447, 0.67, 0.07200000000000001, 0.77, 192.0, 20.0, 240.0, 2.0, 64.0, 24.0, 16.0, 0.0, 0.0, 0.0, 1.716196893477104E9, 0.0, 2024-05-20 12:21:33.477
154.0, 5776.540133540647, -120191.9237008004, -85889.39438931875, -30217.859770996547, -74951.36707441414, -18323.71423527172, -178987.38282768521, -187500.02235174447, 0.67, 0.07200000000000001, 0.77, 192.0, 0.0, 0.0, 0.0, 0.0, 0.0, 0.0, 0.0, 0.0, 0.0, 1.716196893480127E9, 0.0, 2024-05-20 12:21:33.480
155.0, 5799.875354751987, -120318.97101628435, -86064.22973444816, -30287.910138119478, -75067.93142174858, -18391.931759349318, -179150.61761744233, -187500.02235174447, 0.67, 0.07200000000000001, 0.77, 192.0, 0.0, 0.0, 0.0, 0.0, 0.0, 0.0, 0.0, 0.0, 0.0, 1.7161968934842649E9, 0.0, 2024-05-20 12:21:33.484
156.0, 5818.404950905437, -120379.58894724715, -86169.0370641991, -30289.318298020164, -75114.62421591571, -18391.82000062704, -179243.66792960977, -187500.02235174447, 0.67, 0.07200000000000001, 0.77, 192.0, 0.0, 0.0, 0.0, 0.0, 0.0, 0.0, 0.0, 0.0, 0.0, 1.7161968934882076E9, 0.0, 2024-05-20 12:21:33.488
157.0, 5758.61403448749, -120448.8793550586, -86282.02513242068, -30300.494170247817, -75168.11194039726, -18401.140678064905, -179343.9378552363, -187500.02235174447, 0.67, 0.07200000000000001, 0.77, 192.0, 0.0, 0.0, 0.0, 0.0, 0.0, 0.0, 0.0, 0.0, 0.0, 1.71619689349222E9, 0.0, 2024-05-20 12:21:33.492
158.0, 5727.589813183524, -120576.41840892058, -86454.20061995991, -30369.806929803723, -75281.5246917635, -18467.592414330535, -179505.4739124148, -187500.02235174447, 0.67, 0.07200000000000001, 0.77, 192.0, 0.0, 0.0, 0.0, 0.0, 0.0, 0.0, 0.0, 0.0, 0.0, 1.7161968934962547E9, 0.0, 2024-05-20 12:21:33.496
159.0, 5807.296133911149, -120718.79902110089, -86643.85517166319, -30452.79895696628, -75412.57296950495, -18548.125749603005, -179686.50069075832, -187500.02235174447, 0.67, 0.07200000000000001, 0.77, 192.0, 0.0, 0.0, 0.0, 0.0, 0.0, 0.0, 0.0, 0.0, 0.0, 1.716196893500366E9, 0.0, 2024-05-20 12:21:33.500
160.0, 5861.029727581707, -120823.85222004083, -86794.14830138067, -30496.049582487296, -75505.57857818349, -18589.565883823143, -179827.80841920478, -187500.02235174447, 0.67, 0.07200000000000001, 0.77, 192.0, 0.0, 0.0, 0.0, 0.0, 0.0, 0.0, 0.0, 0.0, 0.0, 1.7161968935052023E9, 0.0, 2024-05-20 12:21:33.505
161.0, 5761.13978161094, -120938.11433769636, -86953.56094283593, -30546.586876700745, -75605.98261427673, -18638.31503848017, -179973.81001398683, -187500.02235174447, 0.67, 0.07200000000000001, 0.77, 192.0, 0.0, 0.0, 0.0, 0.0, 0.0, 0.0, 0.0, 0.0, 0.0, 1.7161968935082233E9, 0.0, 2024-05-20 12:21:33.508
162.0, 5646.3635738329385, -120982.63901265133, -87041.49270552311, -30527.8561148472, -75634.03405356813, -18618.28787544821, -180048.1966195341, -187500.02235174447, 0.67, 0.07200000000000001, 0.77, 192.0, 0.0, 0.0, 0.0, 0.0, 0.0, 0.0, 0.0, 0.0, 0.0, 1.7161968935132513E9, 0.0, 2024-05-20 12:21:33.513
163.0, 5691.737615077212, -121073.85648177344, -87178.33008507849, -30556.891030894643, -75709.85117076054, -18644.68528564993, -180170.0806820489, -187500.02235174447, 0.656, 0.082, 0.756, 192.0, 20.0, 128.0, 2.0, 144.0, 23.0, 160.0, 0.0, 0.0, 0.0, 1.7161968935162375E9, 0.0, 2024-05-20 12:21:33.516
164.0, 5697.303199446583, -121189.75027677421, -87341.3637091355, -30609.19411292006, -75810.94811093189, -18696.004890919317, -180317.3563262649, -187500.02235174447, 0.656, 0.082, 0.756, 192.0, 0.0, 0.0, 0.0, 0.0, 0.0, 0.0, 0.0, 0.0, 0.0, 1.7161968935202887E9, 0.0, 2024-05-20 12:21:33.520
165.0, 5834.542910402169, -121303.74417349628, -87502.22921398035, -30658.859689099754, -75908.78169641277, -18745.290487443268, -180464.52021175865, -187500.02235174447, 0.656, 0.082, 0.756, 192.0, 0.0, 0.0, 0.0, 0.0, 0.0, 0.0, 0.0, 0.0, 0.0, 1.7161968935242865E9, 0.0, 2024-05-20 12:21:33.524
166.0, 5836.688677869878, -121365.97143005986, -87610.76928505531, -30659.038503055395, -75954.89334522407, -18743.055312997738, -180558.30813149313, -187500.02235174447, 0.656, 0.082, 0.756, 192.0, 0.0, 0.0, 0.0, 0.0, 0.0, 0.0, 0.0, 0.0, 0.0, 1.7161968935283096E9, 0.0, 2024-05-20 12:21:33.528
167.0, 5711.116577519962, -121419.54856151922, -87709.83221648124, -30651.193040751583, -75993.7406770874, -18731.5218128588, -180642.37304238952, -187500.02235174447, 0.656, 0.082, 0.756, 192.0, 0.0, 0.0, 0.0, 0.0, 0.0, 0.0, 0.0, 0.0, 0.0, 1.7161968935343397E9, 0.0, 2024-05-20 12:21:33.534
168.0, 5791.247581392238, -121531.21787681793, -87867.79199454689, -30702.17736985414, -76089.89788173413, -18778.169903537026, -180784.95482026992, -187500.02235174447, 0.656, 0.082, 0.756, 192.0, 0.0, 0.0, 0.0, 0.0, 0.0, 0.0, 0.0, 0.0, 0.0, 1.7161968935373363E9, 0.0, 2024-05-20 12:21:33.537
169.0, 5894.914972175953, -121681.98039316898, -88065.69433995418, -30789.90796684122, -76224.90241824418, -18863.68767782303, -180969.3120085373, -187500.02235174447, 0.656, 0.082, 0.756, 192.0, 0.0, 0.0, 0.0, 0.0, 0.0, 0.0, 0.0, 0.0, 0.0, 1.7161968935413513E9, 0.0, 2024-05-20 12:21:33.541
170.0, 5952.426010659458, -121780.37277226124, -88211.31595508051, -30824.284949813482, -76307.67092796219, -18894.98012006046, -181101.32141129035, -187500.02235174447, 0.656, 0.082, 0.756, 192.0, 0.0, 0.0, 0.0, 0.0, 0.0, 0.0, 0.0, 0.0, 0.0, 1.716196893546374E9, 0.0, 2024-05-20 12:21:33.546
171.0, 5934.566966839668, -121852.12187196278, -88330.20488383829, -30833.4268132957, -76362.76797804452, -18900.32218698528, -181204.5641189294, -187500.02235174447, 0.656, 0.082, 0.756, 192.0, 0.0, 0.0, 0.0, 0.0, 0.0, 0.0, 0.0, 0.0, 0.0, 1.71619689355041E9, 0.0, 2024-05-20 12:21:33.550
172.0, 5855.084163556596, -121955.96807670213, -88479.11220539955, -30871.625944569823, -76448.97865640864, -18936.2190885805, -181338.98751008362, -187500.02235174447, 0.656, 0.082, 0.756, 192.0, 0.0, 0.0, 0.0, 0.0, 0.0, 0.0, 0.0, 0.0, 0.0, 1.716196893553377E9, 0.0, 2024-05-20 12:21:33.553
173.0, 5827.792683576666, -122071.52659553607, -88640.2682829223, -30922.990253328117, -76546.61107618941, -18984.051821714856, -181487.06781710003, -187500.02235174447, 0.65, 0.084, 0.754, 192.0, 20.0, 80.0, 2.0, 160.0, 23.0, 144.0, 0.0, 0.0, 0.0, 1.7161968935574243E9, 0.0, 2024-05-20 12:21:33.557
174.0, 5807.296133911149, -122185.18521609131, -88799.83738658874, -30973.08051265246, -76644.33290294802, -19031.973961827036, -181632.93530141536, -187500.02235174447, 0.65, 0.084, 0.754, 192.0, 0.0, 0.0, 0.0, 0.0, 0.0, 0.0, 0.0, 0.0, 0.0, 1.7161968935604186E9, 0.0, 2024-05-20 12:21:33.560
175.0, 5819.969573017308, -122284.02463007267, -88946.10720230428, -31006.76459154661, -76729.47069757828, -19063.78049418694, -181763.89417217902, -187500.02235174447, 0.65, 0.084, 0.754, 192.0, 0.0, 0.0, 0.0, 0.0, 0.0, 0.0, 0.0, 0.0, 0.0, 1.7161968935634618E9, 0.0, 2024-05-20 12:21:33.563
176.0, 5904.570925780646, -122337.66881676542, -89046.35477618633, -30996.438085608257, -76767.31220094112, -19049.609488202273, -181848.40611796454, -187500.02235174447, 0.65, 0.084, 0.754, 192.0, 0.0, 0.0, 0.0, 0.0, 0.0, 0.0, 0.0, 0.0, 0.0, 1.7161968935674345E9, 0.0, 2024-05-20 12:21:33.567
177.0, 5819.34372417256, -122422.40427999548, -89178.63239987283, -31018.09692598545, -76835.84264944108, -19068.362601800276, -181964.9034100656, -187500.02235174447, 0.65, 0.084, 0.754, 192.0, 0.0, 0.0, 0.0, 0.0, 0.0, 0.0, 0.0, 0.0, 0.0, 1.7161968935714712E9, 0.0, 2024-05-20 12:21:33.571
178.0, 5772.6285782609675, -122575.26786032533, -89379.84280345951, -31106.49807530619, -76972.07653189618, -19154.1709487642, -182149.50646752198, -187500.02235174447, 0.65, 0.084, 0.754, 192.0, 0.0, 0.0, 0.0, 0.0, 0.0, 0.0, 0.0, 0.0, 0.0, 1.7161968935754576E9, 0.0, 2024-05-20 12:21:33.575
179.0, 5891.338693063104, -122749.03032172089, -89603.0026201013, -31212.22182657979, -77129.92455123956, -19257.056028491977, -182357.2882839785, -187500.02235174447, 0.65, 0.084, 0.754, 192.0, 0.0, 0.0, 0.0, 0.0, 0.0, 0.0, 0.0, 0.0, 0.0, 1.7161968935805051E9, 0.0, 2024-05-20 12:21:33.580
180.0, 5854.1006868005625, -122869.1485964237, -89772.25002911688, -31262.312085904134, -77233.25666585645, -19306.609845949395, -182512.54350096508, -187500.02235174447, 0.65, 0.084, 0.754, 192.0, 0.0, 0.0, 0.0, 0.0, 0.0, 0.0, 0.0, 0.0, 0.0, 1.7161968935835023E9, 0.0, 2024-05-20 12:21:33.583
181.0, 5738.2292435442505, -122977.21928086512, -89928.15344669264, -31299.460685188853, -77324.29532102292, -19344.67486675678, -182653.9182846449, -187500.02235174447, 0.65, 0.084, 0.754, 192.0, 0.0, 0.0, 0.0, 0.0, 0.0, 0.0, 0.0, 0.0, 0.0, 1.7161968935875473E9, 0.0, 2024-05-20 12:21:33.587
182.0, 5755.104810608007, -123044.18510725322, -90041.18621840313, -31295.32561246462, -77372.82095823539, -19337.946991675733, -182750.634282903, -187500.02235174447, 0.652, 0.084, 0.752, 192.0, 20.0, 96.0, 2.0, 160.0, 23.0, 128.0, 0.0, 0.0, 0.0, 1.716196893593558E9, 0.0, 2024-05-20 12:21:33.593
183.0, 5786.1290319119735, -123165.10804475643, -90209.07017100694, -31348.276895079245, -77474.3872850403, -19385.310338176532, -182901.64266844306, -187500.02235174447, 0.652, 0.084, 0.752, 192.0, 0.0, 0.0, 0.0, 0.0, 0.0, 0.0, 0.0, 0.0, 0.0, 1.7161968935965784E9, 0.0, 2024-05-20 12:21:33.596
184.0, 5808.525479856191, -123258.00189471268, -90349.79675409755, -31374.003752947305, -77546.98575103114, -19405.203390741754, -183026.34305075923, -187500.02235174447, 0.652, 0.084, 0.752, 192.0, 0.0, 0.0, 0.0, 0.0, 0.0, 0.0, 0.0, 0.0, 0.0, 1.7161968936005876E9, 0.0, 2024-05-20 12:21:33.600
185.0, 5882.2191813253385, -123393.34170738957, -90537.05966914412, -31440.991931079858, -77664.01948499912, -19467.497702538694, -183196.6856952531, -187500.02235174447, 0.652, 0.084, 0.752, 192.0, 0.0, 0.0, 0.0, 0.0, 0.0, 0.0, 0.0, 0.0, 0.0, 1.7161968936036603E9, 0.0, 2024-05-20 12:21:33.603
186.0, 5779.021177175186, -123464.59906871308, -90658.54140025872, -31442.847125869648, -77717.93189262532, -19467.90003393889, -183302.34239129335, -187500.02235174447, 0.652, 0.084, 0.752, 192.0, 0.0, 0.0, 0.0, 0.0, 0.0, 0.0, 0.0, 0.0, 0.0, 1.71619689360858E9, 0.0, 2024-05-20 12:21:33.608
187.0, 5442.828588822912, -123532.52602011277, -90774.6810644485, -31442.020111324804, -77767.79863450512, -19463.988478659212, -183403.1934622757, -187500.02235174447, 0.652, 0.084, 0.752, 192.0, 0.0, 0.0, 0.0, 0.0, 0.0, 0.0, 0.0, 0.0, 0.0, 1.716196893613605E9, 0.0, 2024-05-20 12:21:33.613
188.0, 5546.5183313510815, -123693.19035925751, -90983.91574429462, -31531.985882757413, -77910.38041238552, -19549.77447387868, -183596.3795896029, -187500.02235174447, 0.652, 0.084, 0.752, 192.0, 0.0, 0.0, 0.0, 0.0, 0.0, 0.0, 0.0, 0.0, 0.0, 1.716196893617642E9, 0.0, 2024-05-20 12:21:33.617
189.0, 5867.534085218202, -123812.34750894875, -91149.27394977499, -31577.67284842406, -78008.34810833313, -19591.326366821097, -183747.6785478209, -187500.02235174447, 0.652, 0.084, 0.752, 192.0, 0.0, 0.0, 0.0, 0.0, 0.0, 0.0, 0.0, 0.0, 0.0, 1.7161968936206453E9, 0.0, 2024-05-20 12:21:33.620
190.0, 6029.517177285812, -123934.41038541918, -91318.78957972403, -31626.422003081087, -78110.87556014962, -19638.197974943876, -183903.58196539665, -187500.02235174447, 0.652, 0.084, 0.752, 192.0, 0.0, 0.0, 0.0, 0.0, 0.0, 0.0, 0.0, 0.0, 0.0, 1.7161968936246672E9, 0.0, 2024-05-20 12:21:33.624
191.0, 6117.694809161998, -123972.38599924876, -91403.34622899846, -31590.078066596758, -78128.15345861358, -19601.11643089252, -183970.2795708513, -187500.02235174447, 0.652, 0.084, 0.752, 192.0, 0.0, 0.0, 0.0, 0.0, 0.0, 0.0, 0.0, 0.0, 0.0, 1.7161968936276772E9, 0.0, 2024-05-20 12:21:33.627
192.0, 5962.841923575631, -124060.5859828694, -91539.04366958662, -31606.037212137846, -78197.1532937471, -19614.259256632242, -184088.9002786756, -187500.02235174447, 0.648, 0.082, 0.734, 192.0, 20.0, 64.0, 2.0, 144.0, 22.0, 240.0, 0.0, 0.0, 0.0, 1.7161968936316664E9, 0.0, 2024-05-20 12:21:33.631
193.0, 5666.301329887072, -124241.36689202391, -91769.44545143194, -31713.79497215688, -78359.06933058135, -19720.22887709485, -184305.17575802514, -187500.02235174447, 0.648, 0.082, 0.734, 192.0, 0.0, 0.0, 0.0, 0.0, 0.0, 0.0, 0.0, 0.0, 0.0, 1.7161968936356723E9, 0.0, 2024-05-20 12:21:33.635
194.0, 5746.99112737073, -124371.38698952044, -91947.9017791631, -31769.786092017424, -78469.6210586573, -19773.29191843175, -184467.5388297485, -187500.02235174447, 0.648, 0.082, 0.734, 192.0, 0.0, 0.0, 0.0, 0.0, 0.0, 0.0, 0.0, 0.0, 0.0, 1.7161968936397023E9, 0.0, 2024-05-20 12:21:33.639
195.0, 6036.893252956063, -124459.72108360782, -92083.10748137326, -31783.599470090805, -78539.4926118246, -19786.792372082757, -184587.38888351785, -187500.02235174447, 0.648, 0.082, 0.734, 192.0, 0.0, 0.0, 0.0, 0.0, 0.0, 0.0, 0.0, 0.0, 0.0, 1.7161968936437185E9, 0.0, 2024-05-20 12:21:33.643
196.0, 6099.500489175379, -124516.67332847994, -92187.66894193518, -31769.272001894955, -78578.20583322119, -19770.63206084157, -184675.9911985387, -187500.02235174447, 0.648, 0.082, 0.734, 192.0, 0.0, 0.0, 0.0, 0.0, 0.0, 0.0, 0.0, 0.0, 0.0, 1.7161968936477313E9, 0.0, 2024-05-20 12:21:33.647
197.0, 5973.011967302796, -124588.3553729481, -92308.14484454929, -31771.060141451377, -78632.0064821251, -19768.687459073957, -184779.8597550225, -187500.02235174447, 0.648, 0.082, 0.734, 192.0, 0.0, 0.0, 0.0, 0.0, 0.0, 0.0, 0.0, 0.0, 0.0, 1.7161968936517656E9, 0.0, 2024-05-20 12:21:33.651
198.0, 5802.088177453063, -124771.32675305924, -92540.60298688448, -31881.209538127132, -78796.53767306062, -19875.88642548161, -184995.35292331612, -187500.02235174447, 0.648, 0.082, 0.734, 192.0, 0.0, 0.0, 0.0, 0.0, 0.0, 0.0, 0.0, 0.0, 0.0, 1.7161968936547687E9, 0.0, 2024-05-20 12:21:33.654
199.0, 5860.11330605904, -124891.31091729534, -92708.57634646611, -31925.80126831547, -78894.03598237467, -19918.488850413425, -185146.58482630074, -187500.02235174447, 0.648, 0.082, 0.734, 192.0, 0.0, 0.0, 0.0, 0.0, 0.0, 0.0, 0.0, 0.0, 0.0, 1.7161968936587732E9, 0.0, 2024-05-20 12:21:33.658
200.0, 5929.448417359402, -125020.14637233573, -92885.75862476333, -31981.121835842354, -79002.19607379391, -19972.445961528538, -185310.55722362487, -187500.02235174447, 0.648, 0.082, 0.734, 192.0, 0.0, 0.0, 0.0, 0.0, 0.0, 0.0, 0.0, 0.0, 0.0, 1.7161968936637993E9, 0.0, 2024-05-20 12:21:33.663
201.0, 6017.156662602028, -125131.05572832296, -93044.4113069071, -32017.175199648766, -79092.2736039488, -20007.113517178717, -185455.4188794397, -187500.02235174447, 0.648, 0.082, 0.734, 192.0, 0.0, 0.0, 0.0, 0.0, 0.0, 0.0, 0.0, 0.0, 0.0, 1.716196893667808E9, 0.0, 2024-05-20 12:21:33.667
202.0, 5979.069290050184, -125175.40158932228, -93135.44996207357, -31988.766132446068, -79113.15013327004, -19974.882301674166, -185530.6995547652, -187500.02235174447, 0.636, 0.092, 0.75, 192.0, 19.0, 224.0, 2.0, 224.0, 23.0, 112.0, 0.0, 0.0, 0.0, 1.7161968936728437E9, 0.0, 2024-05-20 12:21:33.672
203.0, 5598.888468609866, -125331.19324817578, -93338.35909823884, -32069.9700200522, -79245.40540521209, -20051.235860733494, -185716.86723433345, -187500.02235174447, 0.636, 0.092, 0.75, 192.0, 0.0, 0.0, 0.0, 0.0, 0.0, 0.0, 0.0, 0.0, 0.0, 1.7161968936768615E9, 0.0, 2024-05-20 12:21:33.676
204.0, 5479.8430776409, -125483.76625582771, -93539.23422565869, -32144.781308744114, -79375.42550270862, -20123.297884857402, -185900.28564933367, -187500.02235174447, 0.636, 0.092, 0.75, 192.0, 0.0, 0.0, 0.0, 0.0, 0.0, 0.0, 0.0, 0.0, 0.0, 1.7161968936798553E9, 0.0, 2024-05-20 12:21:33.679
205.0, 6008.148909586538, -125594.69796355939, -93698.84803281404, -32177.92894577133, -79464.6089630853, -20153.159815449693, -186042.62155802507, -187500.02235174447, 0.636, 0.092, 0.75, 192.0, 0.0, 0.0, 0.0, 0.0, 0.0, 0.0, 0.0, 0.0, 0.0, 1.716196893682879E9, 0.0, 2024-05-20 12:21:33.682
206.0, 6218.568231888799, -125664.10013009312, -93815.09945572609, -32170.016428234154, -79511.54762644145, -20143.526213589455, -186145.7301551974, -187500.02235174447, 0.636, 0.092, 0.75, 192.0, 0.0, 0.0, 0.0, 0.0, 0.0, 0.0, 0.0, 0.0, 0.0, 1.7161968936889043E9, 0.0, 2024-05-20 12:21:33.688
207.0, 6106.7424543788975, -125735.44689839447, -93930.92619549349, -32165.322561898538, -79558.21806886412, -20134.943143718618, -186249.77752563686, -187500.02235174447, 0.636, 0.092, 0.75, 192.0, 0.0, 0.0, 0.0, 0.0, 0.0, 0.0, 0.0, 0.0, 0.0, 1.7161968936919365E9, 0.0, 2024-05-20 12:21:33.691
208.0, 6029.248956352349, -125886.63409789016, -94130.28140429038, -32240.960865135297, -79686.11475063738, -20205.731118408577, -186433.5088650595, -187500.02235174447, 0.636, 0.092, 0.75, 192.0, 0.0, 0.0, 0.0, 0.0, 0.0, 0.0, 0.0, 0.0, 0.0, 1.7161968936989665E9, 0.0, 2024-05-20 12:21:33.698
209.0, 5822.137692229473, -126048.28191379094, -94341.30422369293, -32326.456287676847, -79827.02014768364, -20287.091468225895, -186630.74065813312, -187500.02235174447, 0.636, 0.092, 0.75, 192.0, 0.0, 0.0, 0.0, 0.0, 0.0, 0.0, 0.0, 0.0, 0.0, 1.7161968937019608E9, 0.0, 2024-05-20 12:21:33.701
210.0, 5543.81377027199, -126191.40013353826, -94532.47869401917, -32390.158759374473, -79950.20061137684, -20350.324553289956, -186810.51573878716, -187500.02235174447, 0.636, 0.092, 0.75, 192.0, 0.0, 0.0, 0.0, 0.0, 0.0, 0.0, 0.0, 0.0, 0.0, 1.71619689370494E9, 0.0, 2024-05-20 12:21:33.704
211.0, 5714.692856632812, -126257.82951805944, -94643.72332617323, -32375.36190454506, -79993.94297527587, -20335.482994971633, -186910.3162777801, -187500.02235174447, 0.636, 0.092, 0.75, 192.0, 0.0, 0.0, 0.0, 0.0, 0.0, 0.0, 0.0, 0.0, 0.0, 1.7161968937090127E9, 0.0, 2024-05-20 12:21:33.709
212.0, 6104.663742144554, -126325.44354503675, -94755.95143508333, -32365.147157328985, -80036.94773160788, -20321.960189576173, -187012.59786040758, -187500.02235174447, 0.648, 0.098, 0.756, 192.0, 20.0, 64.0, 3.0, 16.0, 23.0, 160.0, 0.0, 0.0, 0.0, 1.716196893711965E9, 0.0, 2024-05-20 12:21:33.711
213.0, 6159.090239893227, -126454.41311054387, -94929.22215810086, -32416.265596898273, -80140.10103226913, -20369.949384921718, -187176.30203679827, -187500.02235174447, 0.648, 0.098, 0.756, 192.0, 0.0, 0.0, 0.0, 0.0, 0.0, 0.0, 0.0, 0.0, 0.0, 1.7161968937149992E9, 0.0, 2024-05-20 12:21:33.714
214.0, 5933.672897061455, -126614.36219386605, -95135.57346291226, -32497.603594971133, -80276.89370833561, -20450.885051594385, -187371.34335891527, -187500.02235174447, 0.648, 0.098, 0.756, 192.0, 0.0, 0.0, 0.0, 0.0, 0.0, 0.0, 0.0, 0.0, 0.0, 1.7161968937201202E9, 0.0, 2024-05-20 12:21:33.720
215.0, 5745.627670958957, -126772.74665507635, -95341.2989188789, -32574.761816830855, -80412.43468671259, -20527.082148442525, -187500.02235174447, -187500.02235174447, 0.648, 0.098, 0.756, 192.0, 0.0, 0.0, 0.0, 0.0, 0.0, 0.0, 0.0, 0.0, 0.0, 1.7161968937240295E9, 0.0, 2024-05-20 12:21:33.724
216.0, 5991.89919136753, -126804.21791126943, -95418.36773376081, -32524.47039180641, -80418.46965771553, -20476.67896469581, -187500.02235174447, -187500.02235174447, 0.648, 0.098, 0.756, 192.0, 0.0, 0.0, 0.0, 0.0, 0.0, 0.0, 0.0, 0.0, 0.0, 1.7161968937280335E9, 0.0, 2024-05-20 12:21:33.728
217.0, 6140.180664084037, -126837.23143782992, -95497.42585389923, -32479.90101336253, -80426.94096886409, -20432.176641485294, -187500.02235174447, -187500.02235174447, 0.648, 0.098, 0.756, 192.0, 0.0, 0.0, 0.0, 0.0, 0.0, 0.0, 0.0, 0.0, 0.0, 1.716196893732105E9, 0.0, 2024-05-20 12:21:33.732
218.0, 5958.170408984472, -127007.1270474347, -95714.57305128254, -32571.7890348183, -80575.2671450695, -20523.997607707694, -187500.02235174447, -187500.02235174447, 0.648, 0.098, 0.756, 192.0, 0.0, 0.0, 0.0, 0.0, 0.0, 0.0, 0.0, 0.0, 0.0, 1.7161968937361248E9, 0.0, 2024-05-20 12:21:33.736
219.0, 5864.650710183467, -127175.41333143871, -95931.98846959931, -32660.07842541676, -80722.65454800779, -20614.41041402941, -187500.02235174447, -187500.02235174447, 0.648, 0.098, 0.756, 192.0, 0.0, 0.0, 0.0, 0.0, 0.0, 0.0, 0.0, 0.0, 0.0, 1.7161968937391243E9, 0.0, 2024-05-20 12:21:33.739
220.0, 5915.7915014972095, -127286.07681823694, -96091.66933198803, -32687.593422841244, -80811.323918262, -20646.507519067232, -187500.02235174447, -187500.02235174447, 0.648, 0.098, 0.756, 192.0, 0.0, 0.0, 0.0, 0.0, 0.0, 0.0, 0.0, 0.0, 0.0, 1.716196893743122E9, 0.0, 2024-05-20 12:21:33.743
221.0, 5987.160621543005, -127382.03285718357, -96235.8604354692, -32701.920891037094, -80886.0457999761, -20662.824292519606, -187500.02235174447, -187500.02235174447, 0.652, 0.094, 0.744, 192.0, 20.0, 96.0, 2.0, 240.0, 23.0, 64.0, 0.0, 0.0, 0.0, 1.7161968937471707E9, 0.0, 2024-05-20 12:21:33.747
222.0, 5985.975979086874, -127488.47186427974, -96388.38873963222, -32725.77020237091, -80968.50138527172, -20689.936958543894, -187500.02235174447, -187500.02235174447, 0.652, 0.094, 0.744, 192.0, 0.0, 0.0, 0.0, 0.0, 0.0, 0.0, 0.0, 0.0, 0.0, 1.7161968937512202E9, 0.0, 2024-05-20 12:21:33.751
223.0, 5980.23158076186, -127613.21695008481, -96558.55257017048, -32769.02082789193, -81068.97247659833, -20734.01459860976, -187500.02235174447, -187500.02235174447, 0.652, 0.094, 0.744, 192.0, 0.0, 0.0, 0.0, 0.0, 0.0, 0.0, 0.0, 0.0, 0.0, 1.7161968937562003E9, 0.0, 2024-05-20 12:21:33.756
224.0, 5857.475800213314, -127742.99117839232, -96736.31599382353, -32817.68057557113, -81175.88087032805, -20782.406125355497, -187500.02235174447, -187500.02235174447, 0.652, 0.094, 0.744, 192.0, 0.0, 0.0, 0.0, 0.0, 0.0, 0.0, 0.0, 0.0, 0.0, 1.716196893759326E9, 0.0, 2024-05-20 12:21:33.759
225.0, 5531.117979421375, -127880.81203470375, -96921.56725186911, -32872.93408786465, -81290.65707810606, -20838.59841091614, -187500.02235174447, -187500.02235174447, 0.652, 0.094, 0.744, 192.0, 0.0, 0.0, 0.0, 0.0, 0.0, 0.0, 0.0, 0.0, 0.0, 1.716196893763212E9, 0.0, 2024-05-20 12:21:33.763
226.0, 5354.941529624645, -127977.57273645076, -97066.38420419506, -32888.15562583871, -81363.76963421937, -20855.45162623544, -187500.02235174447, -187500.02235174447, 0.652, 0.094, 0.744, 192.0, 0.0, 0.0, 0.0, 0.0, 0.0, 0.0, 0.0, 0.0, 0.0, 1.716196893767232E9, 0.0, 2024-05-20 12:21:33.767
227.0, 5814.985134003775, -128018.74464973745, -97153.01956570383, -32849.5541631644, -81381.02518093887, -20816.78310832776, -187500.02235174447, -187500.02235174447, 0.652, 0.094, 0.744, 192.0, 0.0, 0.0, 0.0, 0.0, 0.0, 0.0, 0.0, 0.0, 0.0, 1.7161968937712026E9, 0.0, 2024-05-20 12:21:33.771
228.0, 6081.753204077864, -128127.15061034568, -97307.69363733455, -32878.8125966564, -81465.67123719111, -20845.996838330848, -187500.02235174447, -187500.02235174447, 0.652, 0.094, 0.744, 192.0, 0.0, 0.0, 0.0, 0.0, 0.0, 0.0, 0.0, 0.0, 0.0, 1.7161968937752032E9, 0.0, 2024-05-20 12:21:33.775
229.0, 6109.648181158088, -128276.63907726278, -97504.85837517481, -32949.1758882017, -81592.8079596529, -20917.231847909912, -187500.02235174447, -187500.02235174447, 0.652, 0.094, 0.744, 192.0, 0.0, 0.0, 0.0, 0.0, 0.0, 0.0, 0.0, 0.0, 0.0, 1.7161968937792354E9, 0.0, 2024-05-20 12:21:33.779
230.0, 6032.735828487376, -128448.14401246834, -97724.4195609593, -33039.454584056686, -81742.56464750346, -21008.494020520928, -187500.02235174447, -187500.02235174447, 0.652, 0.094, 0.744, 192.0, 0.0, 0.0, 0.0, 0.0, 0.0, 0.0, 0.0, 0.0, 0.0, 1.7161968937862928E9, 0.0, 2024-05-20 12:21:33.786
231.0, 5956.56108338369, -128551.85610674098, -97874.35506276549, -33061.29223838952, -81822.82976184247, -21032.723311510483, -187500.02235174447, -187500.02235174447, 0.656, 0.096, 0.758, 192.0, 20.0, 128.0, 3.0, 0.0, 23.0, 176.0, 0.0, 0.0, 0.0, 1.7161968937902665E9, 0.0, 2024-05-20 12:21:33.790
232.0, 5935.7516092957985, -128643.02887237417, -98012.04180861019, -33070.16588093828, -81890.46614056423, -21045.4191023611, -187500.02235174447, -187500.02235174447, 0.656, 0.096, 0.758, 192.0, 0.0, 0.0, 0.0, 0.0, 0.0, 0.0, 0.0, 0.0, 0.0, 1.7161968937932909E9, 0.0, 2024-05-20 12:21:33.793
233.0, 5987.540601198745, -128773.31719080415, -98187.01126420633, -33113.95294832622, -81996.30165056011, -21094.056498295846, -187500.02235174447, -187500.02235174447, 0.656, 0.096, 0.758, 192.0, 0.0, 0.0, 0.0, 0.0, 0.0, 0.0, 0.0, 0.0, 0.0, 1.7161968937963088E9, 0.0, 2024-05-20 12:21:33.796
234.0, 5987.2276767763715, -128896.34119228617, -98354.9622720435, -33153.31437031202, -82094.13523604098, -21135.317818560343, -187500.02235174447, -187500.02235174447, 0.656, 0.096, 0.758, 192.0, 0.0, 0.0, 0.0, 0.0, 0.0, 0.0, 0.0, 0.0, 0.0, 1.7161968938003836E9, 0.0, 2024-05-20 12:21:33.800
235.0, 5954.8847025495415, -129046.38845281464, -98552.66345175069, -33218.067373999045, -82219.55087417971, -21204.63057811625, -187500.02235174447, -187500.02235174447, 0.656, 0.096, 0.758, 192.0, 0.0, 0.0, 0.0, 0.0, 0.0, 0.0, 0.0, 0.0, 0.0, 1.7161968938033493E9, 0.0, 2024-05-20 12:21:33.803
236.0, 5982.779679629765, -129117.73522111599, -98669.07133687394, -33202.59996683597, -82264.27671483478, -21194.594644855817, -187500.02235174447, -187500.02235174447, 0.656, 0.096, 0.758, 192.0, 0.0, 0.0, 0.0, 0.0, 0.0, 0.0, 0.0, 0.0, 0.0, 1.7161968938073716E9, 0.0, 2024-05-20 12:21:33.807
237.0, 5949.810856558187, -129185.81863472685, -98779.4666027387, -33186.21613815024, -82305.96271824393, -21181.00478422699, -187500.02235174447, -187500.02235174447, 0.656, 0.096, 0.758, 192.0, 0.0, 0.0, 0.0, 0.0, 0.0, 0.0, 0.0, 0.0, 0.0, 1.7161968938114989E9, 0.0, 2024-05-20 12:21:33.811
238.0, 5864.851875883565, -129342.526715103, -98981.79459354814, -33260.33452276403, -82439.35792915321, -21256.665439208205, -187500.02235174447, -187500.02235174447, 0.656, 0.096, 0.758, 192.0, 0.0, 0.0, 0.0, 0.0, 0.0, 0.0, 0.0, 0.0, 0.0, 1.7161968938163798E9, 0.0, 2024-05-20 12:21:33.816
239.0, 5815.119244470507, -129482.31452492649, -99166.01767134877, -33315.1633519129, -82553.64239855319, -21314.82467828091, -187500.02235174447, -187500.02235174447, 0.656, 0.096, 0.758, 192.0, 0.0, 0.0, 0.0, 0.0, 0.0, 0.0, 0.0, 0.0, 0.0, 1.716196893820414E9, 0.0, 2024-05-20 12:21:33.820
240.0, 6015.18970908996, -129595.12377919244, -99321.80933020228, -33343.25949469322, -82641.12712635126, -21345.06658852894, -187500.02235174447, -187500.02235174447, 0.656, 0.096, 0.758, 192.0, 0.0, 0.0, 0.0, 0.0, 0.0, 0.0, 0.0, 0.0, 0.0, 1.7161968938234255E9, 0.0, 2024-05-20 12:21:33.823
241.0, 6027.840796451664, -129693.13617862895, -99464.05583191584, -33358.123404756, -82714.28438595348, -21360.533995692014, -187500.02235174447, -187500.02235174447, 0.646, 0.096, 0.754, 192.0, 20.0, 48.0, 3.0, 0.0, 23.0, 144.0, 0.0, 0.0, 0.0, 1.7161968938274236E9, 0.0, 2024-05-20 12:21:33.827
242.0, 5883.269713314738, -129811.37690679752, -99627.60354609533, -33395.60728020755, -82810.06161094447, -21400.163638611277, -187500.02235174447, -187500.02235174447, 0.646, 0.096, 0.754, 192.0, 0.0, 0.0, 0.0, 0.0, 0.0, 0.0, 0.0, 0.0, 0.0, 1.7161968938324585E9, 0.0, 2024-05-20 12:21:33.832
243.0, 5856.894654857476, -129960.19482138097, -99821.50492924511, -33461.2990571617, -82935.90193222785, -21469.834026078468, -187500.02235174447, -187500.02235174447, 0.646, 0.096, 0.754, 192.0, 0.0, 0.0, 0.0, 0.0, 0.0, 0.0, 0.0, 0.0, 0.0, 1.7161968938374474E9, 0.0, 2024-05-20 12:21:33.837
244.0, 5850.032669309696, -130095.82520673577, -100000.94473373232, -33508.43888621794, -83047.01245391517, -21523.724081960212, -187500.02235174447, -187500.02235174447, 0.646, 0.096, 0.754, 192.0, 0.0, 0.0, 0.0, 0.0, 0.0, 0.0, 0.0, 0.0, 0.0, 1.7161968938405156E9, 0.0, 2024-05-20 12:21:33.840
245.0, 5917.512585820268, -130262.70333083908, -100211.40875952349, -33584.948907488455, -83189.4377695844, -21608.41484170137, -187500.02235174447, -187500.02235174447, 0.646, 0.096, 0.754, 192.0, 0.0, 0.0, 0.0, 0.0, 0.0, 0.0, 0.0, 0.0, 0.0, 1.7161968938445284E9, 0.0, 2024-05-20 12:21:33.844
246.0, 6043.218796636916, -130321.19784607862, -100312.61745841712, -33555.422253063, -83221.60192985558, -21585.817228057054, -187500.02235174447, -187500.02235174447, 0.646, 0.096, 0.754, 192.0, 0.0, 0.0, 0.0, 0.0, 0.0, 0.0, 0.0, 0.0, 0.0, 1.71619689384751E9, 0.0, 2024-05-20 12:21:33.847
247.0, 6087.117622747139, -130377.99362873955, -100409.89225028662, -33526.56615097119, -83251.46386044787, -21561.56558532305, -187500.02235174447, -187500.02235174447, 0.646, 0.096, 0.754, 192.0, 0.0, 0.0, 0.0, 0.0, 0.0, 0.0, 0.0, 0.0, 0.0, 1.7161968938545601E9, 0.0, 2024-05-20 12:21:33.854
248.0, 5986.713586653899, -130547.39749996633, -100622.5020435455, -33611.569835134724, -83396.0349435848, -21651.28548756665, -187500.02235174447, -187500.02235174447, 0.646, 0.096, 0.754, 192.0, 0.0, 0.0, 0.0, 0.0, 0.0, 0.0, 0.0, 0.0, 0.0, 1.7161968938575518E9, 0.0, 2024-05-20 12:21:33.857
249.0, 5725.42169397136, -130725.67501374186, -100846.7570956656, -33702.76495251238, -83550.46314602651, -21749.320238747627, -187500.02235174447, -187500.02235174447, 0.646, 0.096, 0.754, 192.0, 0.0, 0.0, 0.0, 0.0, 0.0, 0.0, 0.0, 0.0, 0.0, 1.7161968938605587E9, 0.0, 2024-05-20 12:21:33.860
250.0, 5738.788037155633, -130854.2869513377, -101019.46902507175, -33743.0651477653, -83655.33753101081, -21795.945977681396, -187500.02235174447, -187500.02235174447, 0.646, 0.096, 0.754, 192.0, 0.0, 0.0, 0.0, 0.0, 0.0, 0.0, 0.0, 0.0, 0.0, 1.7161968938645515E9, 0.0, 2024-05-20 12:21:33.864
251.0, 5953.342432182126, -130915.28486195623, -101122.37645654398, -33716.35481314121, -83690.87680469475, -21776.49996000528, -187500.02235174447, -187500.02235174447, 0.646, 0.092, 0.75, 192.0, 20.0, 48.0, 2.0, 224.0, 23.0, 112.0, 0.0, 0.0, 0.0, 1.7161968938675995E9, 0.0, 2024-05-20 12:21:33.867
252.0, 5983.51728719679, -130945.10208905961, -101192.76209983375, -33658.843774657704, -83692.66494425118, -21728.287247215183, -187500.02235174447, -187500.02235174447, 0.646, 0.092, 0.75, 192.0, 0.0, 0.0, 0.0, 0.0, 0.0, 0.0, 0.0, 0.0, 0.0, 1.7161968938705952E9, 0.0, 2024-05-20 12:21:33.870
253.0, 5839.415590693426, -131109.7897422063, -101400.11923314563, -33737.94659828503, -83834.06207967545, -21814.453222090393, -187500.02235174447, -187500.02235174447, 0.646, 0.092, 0.75, 192.0, 0.0, 0.0, 0.0, 0.0, 0.0, 0.0, 0.0, 0.0, 0.0, 1.7161968938746426E9, 0.0, 2024-05-20 12:21:33.874
254.0, 5686.015568496653, -131269.64941855066, -101601.55315417686, -33811.796761965365, -83969.37954060789, -21893.801914906733, -187500.02235174447, -187500.02235174447, 0.646, 0.092, 0.75, 192.0, 0.0, 0.0, 0.0, 0.0, 0.0, 0.0, 0.0, 0.0, 0.0, 1.716196893878606E9, 0.0, 2024-05-20 12:21:33.878
255.0, 5894.4232337979365, -131373.51797503448, -101746.77243790298, -33827.957073206555, -84049.2423235467, -21915.773679706297, -187500.02235174447, -187500.02235174447, 0.646, 0.092, 0.75, 192.0, 0.0, 0.0, 0.0, 0.0, 0.0, 0.0, 0.0, 0.0, 0.0, 1.7161968938836415E9, 0.0, 2024-05-20 12:21:33.883
0.0, 6141.857044918185, -131455.16889752971, -101870.55639869648, -33822.12326790372, -84107.89330099741, -21917.807688451732, -187500.02235174447, -187500.02235174447, 0.646, 0.092, 0.75, 192.0, 0.0, 0.0, 0.0, 0.0, 0.0, 0.0, 0.0, 0.0, 0.0, 1.7161968938876448E9, 0.0, 2024-05-20 12:21:33.887
1.0, 5887.628303483522, -131556.82463131245, -102014.30046728856, -33837.61302681125, -84184.80565366813, -21941.00879919634, -187500.02235174447, -187500.02235174447, 0.646, 0.092, 0.75, 192.0, 0.0, 0.0, 0.0, 0.0, 0.0, 0.0, 0.0, 0.0, 0.0, 1.7161968938926804E9, 0.0, 2024-05-20 12:21:33.892
2.0, 5521.752598494601, -131720.8417321255, -102219.55653662165, -33913.60895795929, -84323.56528324667, -22024.112585081173, -187500.02235174447, -187500.02235174447, 0.646, 0.092, 0.75, 192.0, 0.0, 0.0, 0.0, 0.0, 0.0, 0.0, 0.0, 0.0, 0.0, 1.7161968938976803E9, 0.0, 2024-05-20 12:21:33.897
3.0, 5764.604302001513, -131918.5876153216, -102460.19541742747, -34022.39489822327, -84499.27234640984, -22141.3251330048, -187500.02235174447, -187500.02235174447, 0.646, 0.092, 0.75, 192.0, 0.0, 0.0, 0.0, 0.0, 0.0, 0.0, 0.0, 0.0, 0.0, 1.716196893900695E9, 0.0, 2024-05-20 12:21:33.900
4.0, 6123.483910975923, -132015.79535195773, -102602.8666022857, -34031.51440996103, -84576.07294035828, -22160.882909403197, -187500.02235174447, -187500.02235174447, 0.654, 0.09, 0.754, 192.0, 20.0, 112.0, 2.0, 208.0, 23.0, 144.0, 0.0, 0.0, 0.0, 1.7161968939047148E9, 0.0, 2024-05-20 12:21:33.904
5.0, 6088.615189625644, -132077.01678002081, -102708.41153960367, -34007.82156083841, -84617.04368794485, -22146.018999340416, -187500.02235174447, -187500.02235174447, 0.654, 0.09, 0.754, 192.0, 0.0, 0.0, 0.0, 0.0, 0.0, 0.0, 0.0, 0.0, 0.0, 1.716196893914739E9, 0.0, 2024-05-20 12:21:33.914
6.0, 5718.716170634767, -132146.32953957672, -102818.22566011258, -33990.67777284119, -84663.37885420071, -22137.301819002845, -187500.02235174447, -187500.02235174447, 0.654, 0.09, 0.754, 192.0, 0.0, 0.0, 0.0, 0.0, 0.0, 0.0, 0.0, 0.0, 0.0, 1.7161968939187388E9, 0.0, 2024-05-20 12:21:33.918
7.0, 5885.951922649375, -132257.2165438195, -102970.17281891976, -34014.43767719718, -84750.17067792067, -22169.95771765205, -187500.02235174447, -187500.02235174447, 0.654, 0.09, 0.754, 192.0, 0.0, 0.0, 0.0, 0.0, 0.0, 0.0, 0.0, 0.0, 0.0, 1.7161968939217713E9, 0.0, 2024-05-20 12:21:33.921
8.0, 6132.961050624973, -132423.49117082253, -103178.69224294332, -34092.26645139056, -84893.75828430156, -22258.381218717244, -187500.02235174447, -187500.02235174447, 0.654, 0.09, 0.754, 192.0, 0.0, 0.0, 0.0, 0.0, 0.0, 0.0, 0.0, 0.0, 0.0, 1.7161968939247773E9, 0.0, 2024-05-20 12:21:33.924
9.0, 5859.532160703202, -132594.549071139, -103392.15140249151, -34173.62680120788, -85044.63255937488, -22351.52093786251, -187500.02235174447, -187500.02235174447, 0.654, 0.09, 0.754, 192.0, 0.0, 0.0, 0.0, 0.0, 0.0, 0.0, 0.0, 0.0, 0.0, 1.7161968939277804E9, 0.0, 2024-05-20 12:21:33.927
10.0, 5736.888138876932, -132687.59938330643, -103526.30657271226, -34177.918336143295, -85115.57699627602, -22369.245871215568, -187500.02235174447, -187500.02235174447, 0.654, 0.09, 0.754, 192.0, 0.0, 0.0, 0.0, 0.0, 0.0, 0.0, 0.0, 0.0, 0.0, 1.7161968939318423E9, 0.0, 2024-05-20 12:21:33.931
11.0, 5771.600398016024, -132743.34463397798, -103620.38506512465, -34144.99421656063, -85146.24358966871, -22349.933964006184, -187500.02235174447, -187500.02235174447, 0.654, 0.09, 0.754, 192.0, 0.0, 0.0, 0.0, 0.0, 0.0, 0.0, 0.0, 0.0, 0.0, 1.7161968939348028E9, 0.0, 2024-05-20 12:21:33.934
12.0, 5751.416772772882, -132841.58055085904, -103760.41874413715, -34158.31585625599, -85222.32892779457, -22375.683173618698, -187500.02235174447, -187500.02235174447, 0.654, 0.09, 0.754, 192.0, 0.0, 0.0, 0.0, 0.0, 0.0, 0.0, 0.0, 0.0, 0.0, 1.7161968939378595E9, 0.0, 2024-05-20 12:21:33.937
13.0, 5404.40594010424, -133001.57433767014, -103963.97608089163, -34233.507124603646, -85360.70857771738, -22461.692686282717, -187500.02235174447, -187500.02235174447, 0.654, 0.09, 0.754, 192.0, 0.0, 0.0, 0.0, 0.0, 0.0, 0.0, 0.0, 0.0, 0.0, 1.7161968939418545E9, 0.0, 2024-05-20 12:21:33.941
14.0, 5554.028517488065, -133090.3554666466, -104091.85041092044, -34232.61305482544, -85424.54515988173, -22472.30976489899, -187500.02235174447, -187500.02235174447, 0.646, 0.094, 0.754, 192.0, 20.0, 48.0, 2.0, 240.0, 23.0, 144.0, 0.0, 0.0, 0.0, 1.7161968939449544E9, 0.0, 2024-05-20 12:21:33.944
15.0, 5970.687385879443, -133132.68967064496, -104173.03194678211, -34189.943574660254, -85443.92412232449, -22440.480880794632, -187500.02235174447, -187500.02235174447, 0.646, 0.094, 0.754, 192.0, 0.0, 0.0, 0.0, 0.0, 0.0, 0.0, 0.0, 0.0, 0.0, 1.7161968939488735E9, 0.0, 2024-05-20 12:21:33.948
16.0, 5916.640867786511, -133258.1053087837, -104339.75360867425, -34232.56835133652, -85548.66439684205, -22492.426334908767, -187500.02235174447, -187500.02235174447, 0.646, 0.094, 0.754, 192.0, 0.0, 0.0, 0.0, 0.0, 0.0, 0.0, 0.0, 0.0, 0.0, 1.7161968939518864E9, 0.0, 2024-05-20 12:21:33.951
17.0, 5777.836534719055, -133414.41105775966, -104536.91834651452, -34303.60219521549, -85683.37836067419, -22575.016030671126, -187500.02235174447, -187500.02235174447, 0.646, 0.094, 0.754, 192.0, 0.0, 0.0, 0.0, 0.0, 0.0, 0.0, 0.0, 0.0, 0.0, 1.716196893954886E9, 0.0, 2024-05-20 12:21:33.954
18.0, 5697.0796820020305, -133523.88990210174, -104684.75278434191, -34326.98211991574, -85769.43257682712, -22610.689414821794, -187500.02235174447, -187500.02235174447, 0.646, 0.094, 0.754, 192.0, 0.0, 0.0, 0.0, 0.0, 0.0, 0.0, 0.0, 0.0, 0.0, 1.7161968939599547E9, 0.0, 2024-05-20 12:21:33.959
19.0, 5756.892950164432, -133626.32794694044, -104826.77576861094, -34342.65069277891, -85850.0106155885, -22640.61840064745, -187500.02235174447, -187500.02235174447, 0.646, 0.094, 0.754, 192.0, 0.0, 0.0, 0.0, 0.0, 0.0, 0.0, 0.0, 0.0, 0.0, 1.7161968939639356E9, 0.0, 2024-05-20 12:21:33.963
20.0, 5916.327943364137, -133700.58044202096, -104941.01553452201, -34331.76539322918, -85903.20776739213, -22643.30060998209, -187500.02235174447, -187500.02235174447, 0.646, 0.094, 0.754, 192.0, 0.0, 0.0, 0.0, 0.0, 0.0, 0.0, 0.0, 0.0, 0.0, 1.7161968939669669E9, 0.0, 2024-05-20 12:21:33.966
21.0, 5876.430079511414, -133775.7270068797, -105052.17075969825, -34321.572997757554, -85954.6838348727, -22642.92063032635, -187500.02235174447, -187500.02235174447, 0.646, 0.094, 0.754, 192.0, 0.0, 0.0, 0.0, 0.0, 0.0, 0.0, 0.0, 0.0, 0.0, 1.716196893971972E9, 0.0, 2024-05-20 12:21:33.971
22.0, 5725.734618393733, -133895.75587460469, -105210.01877904162, -34358.140451686435, -86053.81382153199, -22691.222750094268, -187500.02235174447, -187500.02235174447, 0.646, 0.094, 0.754, 192.0, 0.0, 0.0, 0.0, 0.0, 0.0, 0.0, 0.0, 0.0, 0.0, 1.7161968939750252E9, 0.0, 2024-05-20 12:21:33.975
23.0, 5654.678422770313, -134026.89355932397, -105380.04849911315, -34404.006231308726, -86163.49383157419, -22751.483053145774, -187500.02235174447, -187500.02235174447, 0.646, 0.094, 0.754, 192.0, 0.0, 0.0, 0.0, 0.0, 0.0, 0.0, 0.0, 0.0, 0.0, 1.7161968939800043E9, 0.0, 2024-05-20 12:21:33.980
24.0, 5593.322884240495, -134150.40929918402, -105543.32799235916, -34444.06055737264, -86267.47414678028, -22803.964949126836, -187500.02235174447, -187500.02235174447, 0.646, 0.09, 0.75, 192.0, 20.0, 48.0, 2.0, 208.0, 23.0, 112.0, 0.0, 0.0, 0.0, 1.7161968939840343E9, 0.0, 2024-05-20 12:21:33.984
25.0, 5473.741051404602, -134268.5829721192, -105700.77368030234, -34478.99633395628, -86365.95593285035, -22852.043551450202, -187500.02235174447, -187500.02235174447, 0.646, 0.09, 0.75, 192.0, 0.0, 0.0, 0.0, 0.0, 0.0, 0.0, 0.0, 0.0, 0.0, 1.7161968939870336E9, 0.0, 2024-05-20 12:21:33.987
26.0, 5631.320849814517, -134332.3077955613, -105801.13301290668, -34459.55031628017, -86408.08897114861, -22845.51684206925, -187500.02235174447, -187500.02235174447, 0.646, 0.09, 0.75, 192.0, 0.0, 0.0, 0.0, 0.0, 0.0, 0.0, 0.0, 0.0, 0.0, 1.7161968939910455E9, 0.0, 2024-05-20 12:21:33.991
27.0, 5891.651617485478, -134432.80123863235, -105940.65260179671, -34478.97398221183, -86487.12473954257, -22876.0493249952, -187500.02235174447, -187500.02235174447, 0.646, 0.09, 0.75, 192.0, 0.0, 0.0, 0.0, 0.0, 0.0, 0.0, 0.0, 0.0, 0.0, 1.7161968939950728E9, 0.0, 2024-05-20 12:21:33.995
28.0, 5742.677240690857, -134573.03608334495, -106121.25469699559, -34539.54720968571, -86610.26049974686, -22948.133700863567, -187500.02235174447, -187500.02235174447, 0.646, 0.09, 0.75, 192.0, 0.0, 0.0, 0.0, 0.0, 0.0, 0.0, 0.0, 0.0, 0.0, 1.7161968939990969E9, 0.0, 2024-05-20 12:21:33.999
29.0, 5650.051611668064, -134673.1271950158, -106258.53911144008, -34559.57437271767, -86693.40898912061, -22982.22011115791, -187500.02235174447, -187500.02235174447, 0.646, 0.09, 0.75, 192.0, 0.0, 0.0, 0.0, 0.0, 0.0, 0.0, 0.0, 0.0, 0.0, 1.7161968940042074E9, 0.0, 2024-05-20 12:21:34.004
30.0, 5741.2243773012615, -134757.5497338235, -106380.64669139942, -34562.59185821913, -86760.1289463197, -23001.196742200464, -187500.02235174447, -187500.02235174447, 0.646, 0.09, 0.75, 192.0, 0.0, 0.0, 0.0, 0.0, 0.0, 0.0, 0.0, 0.0, 0.0, 1.716196894008119E9, 0.0, 2024-05-20 12:21:34.008
31.0, 5674.0126817241535, -134874.49406081368, -106535.70074268589, -34597.28176561377, -86860.71179636857, -23050.8399666357, -187500.02235174447, -187500.02235174447, 0.646, 0.09, 0.75, 192.0, 0.0, 0.0, 0.0, 0.0, 0.0, 0.0, 0.0, 0.0, 0.0, 1.7161968940111358E9, 0.0, 2024-05-20 12:21:34.011
32.0, 5470.053013569476, -135000.82612047507, -106701.84125922219, -34642.56639988022, -86971.777614567, -23110.250903397908, -187500.02235174447, -187500.02235174447, 0.646, 0.09, 0.75, 192.0, 0.0, 0.0, 0.0, 0.0, 0.0, 0.0, 0.0, 0.0, 0.0, 1.7161968940151453E9, 0.0, 2024-05-20 12:21:34.015
33.0, 5710.066045530563, -135106.16989209293, -106846.90408073713, -34668.31560949273, -87061.47516506615, -23150.081712017265, -187500.02235174447, -187500.02235174447, 0.646, 0.09, 0.75, 192.0, 0.0, 0.0, 0.0, 0.0, 0.0, 0.0, 0.0, 0.0, 0.0, 1.7161968940191867E9, 0.0, 2024-05-20 12:21:34.019
34.0, 5770.929845682364, -135225.23763480637, -107005.51205939199, -34705.71007796646, -87161.83449767048, -23202.608311487238, -187500.02235174447, -187500.02235174447, 0.652, 0.09, 0.75, 192.0, 20.0, 96.0, 2.0, 208.0, 23.0, 112.0, 0.0, 0.0, 0.0, 1.71619689402317E9, 0.0, 2024-05-20 12:21:34.023
35.0, 5703.114653004963, -135321.75246736436, -107140.98598253561, -34720.05989790677, -87239.50680965267, -23232.40318684616, -187500.02235174447, -187500.02235174447, 0.652, 0.09, 0.75, 192.0, 0.0, 0.0, 0.0, 0.0, 0.0, 0.0, 0.0, 0.0, 0.0, 1.716196894026194E9, 0.0, 2024-05-20 12:21:34.026
36.0, 5465.873237356333, -135422.2012069465, -107281.19847550374, -34739.95295047199, -87324.13051416047, -23266.646059351693, -187500.02235174447, -187500.02235174447, 0.652, 0.09, 0.75, 192.0, 0.0, 0.0, 0.0, 0.0, 0.0, 0.0, 0.0, 0.0, 0.0, 1.71619689403021E9, 0.0, 2024-05-20 12:21:34.030
37.0, 5290.568505593361, -135553.65181608818, -107452.18932058684, -34793.53008193136, -87441.16424812845, -23333.231906084053, -187500.02235174447, -187500.02235174447, 0.652, 0.09, 0.75, 192.0, 0.0, 0.0, 0.0, 0.0, 0.0, 0.0, 0.0, 0.0, 0.0, 1.716196894034237E9, 0.0, 2024-05-20 12:21:34.034
38.0, 5640.418009807827, -135644.8245817214, -107580.66714771595, -34806.829369882274, -87517.49545544332, -23359.785778496956, -187500.02235174447, -187500.02235174447, 0.652, 0.09, 0.75, 192.0, 0.0, 0.0, 0.0, 0.0, 0.0, 0.0, 0.0, 0.0, 0.0, 1.7161968940382047E9, 0.0, 2024-05-20 12:21:34.038
39.0, 5756.08828736404, -135761.9924261561, -107734.31303910173, -34842.770974966406, -87621.27460494931, -23414.391090201272, -187500.02235174447, -187500.02235174447, 0.652, 0.09, 0.75, 192.0, 0.0, 0.0, 0.0, 0.0, 0.0, 0.0, 0.0, 0.0, 0.0, 1.7161968940432334E9, 0.0, 2024-05-20 12:21:34.043
40.0, 5762.190313600339, -135824.26438620858, -107834.58296472824, -34827.437678270064, -87670.67196019554, -23416.849782091354, -187500.02235174447, -187500.02235174447, 0.652, 0.09, 0.75, 192.0, 0.0, 0.0, 0.0, 0.0, 0.0, 0.0, 0.0, 0.0, 0.0, 1.7161968940472908E9, 0.0, 2024-05-20 12:21:34.047
41.0, 5629.465655024726, -135880.81429968053, -107931.18720426408, -34809.6680414281, -87713.18497814954, -23413.49702042306, -187500.02235174447, -187500.02235174447, 0.652, 0.09, 0.75, 192.0, 0.0, 0.0, 0.0, 0.0, 0.0, 0.0, 0.0, 0.0, 0.0, 1.7161968940513852E9, 0.0, 2024-05-20 12:21:34.051
42.0, 5460.732336131613, -136019.26100483668, -108111.20815410712, -34874.62221081522, -87838.28769186589, -23491.951643461187, -187500.02235174447, -187500.02235174447, 0.652, 0.09, 0.75, 192.0, 0.0, 0.0, 0.0, 0.0, 0.0, 0.0, 0.0, 0.0, 0.0, 1.7161968940543025E9, 0.0, 2024-05-20 12:21:34.054
43.0, 5472.936388604211, -136174.35975961207, -108304.90837155681, -34951.35574953029, -87979.30484763443, -23584.979603884174, -187500.02235174447, -187500.02235174447, 0.654, 0.092, 0.758, 192.0, 20.0, 112.0, 2.0, 224.0, 23.0, 176.0, 0.0, 0.0, 0.0, 1.7161968940582936E9, 0.0, 2024-05-20 12:21:34.058
44.0, 5395.509945811027, -136339.76266858133, -108508.6668740114, -35036.135916249266, -88131.52022737506, -23688.02114582314, -187500.02235174447, -187500.02235174447, 0.654, 0.092, 0.758, 192.0, 0.0, 0.0, 0.0, 0.0, 0.0, 0.0, 0.0, 0.0, 0.0, 1.716196894062317E9, 0.0, 2024-05-20 12:21:34.062
45.0, 5581.185887001263, -136389.3835412721, -108597.76092741024, -35008.7103258026, -88168.62412317087, -23679.281613741114, -187500.02235174447, -187500.02235174447, 0.654, 0.092, 0.758, 192.0, 0.0, 0.0, 0.0, 0.0, 0.0, 0.0, 0.0, 0.0, 0.0, 1.716196894066352E9, 0.0, 2024-05-20 12:21:34.066
46.0, 5353.443962746139, -136477.44941442602, -108724.60707719412, -35021.853151542324, -88243.83774326298, -23709.769393178154, -187500.02235174447, -187500.02235174447, 0.654, 0.092, 0.758, 192.0, 0.0, 0.0, 0.0, 0.0, 0.0, 0.0, 0.0, 0.0, 0.0, 1.7161968940713477E9, 0.0, 2024-05-20 12:21:34.071
47.0, 5351.298195278429, -136568.86804924824, -108852.30259326728, -35036.627654627286, -88321.95709013428, -23742.581754038543, -187500.02235174447, -187500.02235174447, 0.654, 0.092, 0.758, 192.0, 0.0, 0.0, 0.0, 0.0, 0.0, 0.0, 0.0, 0.0, 0.0, 1.7161968940753624E9, 0.0, 2024-05-20 12:21:34.075
48.0, 5787.604247046023, -136678.3021901014, -109000.22643807251, -35071.2281550441, -88420.55063492664, -23794.19193198585, -187500.02235174447, -187500.02235174447, 0.654, 0.092, 0.758, 192.0, 0.0, 0.0, 0.0, 0.0, 0.0, 0.0, 0.0, 0.0, 0.0, 1.7161968940794234E9, 0.0, 2024-05-20 12:21:34.079
49.0, 5746.745258181722, -136807.65173526428, -109169.27268138799, -35125.85581849287, -88541.4959241743, -23866.455121809857, -187500.02235174447, -187500.02235174447, 0.654, 0.092, 0.758, 192.0, 0.0, 0.0, 0.0, 0.0, 0.0, 0.0, 0.0, 0.0, 0.0, 1.7161968940823667E9, 0.0, 2024-05-20 12:21:34.082
50.0, 5498.730301705636, -136894.89059387334, -109296.61056954987, -35139.311568654965, -88619.21293964541, -23898.194598936392, -187500.02235174447, -187500.02235174447, 0.654, 0.092, 0.758, 192.0, 0.0, 0.0, 0.0, 0.0, 0.0, 0.0, 0.0, 0.0, 0.0, 1.716196894086431E9, 0.0, 2024-05-20 12:21:34.086
51.0, 5074.784764621826, -137049.18468584833, -109492.05422306708, -35219.77784869407, -88765.39334838312, -23995.35763208361, -187500.02235174447, -187500.02235174447, 0.654, 0.092, 0.758, 192.0, 0.0, 0.0, 0.0, 0.0, 0.0, 0.0, 0.0, 0.0, 0.0, 1.716196894090398E9, 0.0, 2024-05-20 12:21:34.090
52.0, 5170.293768679353, -137151.2203992868, -109634.14426256946, -35245.102375161936, -88857.66134949462, -24040.3740454166, -187500.02235174447, -187500.02235174447, 0.654, 0.092, 0.758, 192.0, 0.0, 0.0, 0.0, 0.0, 0.0, 0.0, 0.0, 0.0, 0.0, 1.716196894094446E9, 0.0, 2024-05-20 12:21:34.094
53.0, 5550.027555230565, -137240.11328698555, -109761.5045024758, -35257.060558445526, -88935.51247543246, -24072.158226032047, -187500.02235174447, -187500.02235174447, 0.644, 0.09, 0.758, 192.0, 20.0, 32.0, 2.0, 208.0, 23.0, 176.0, 0.0, 0.0, 0.0, 1.7161968940984404E9, 0.0, 2024-05-20 12:21:34.098
54.0, 5441.688649855691, -137383.16445149953, -109945.3028971318, -35326.395669745885, -89069.8241078644, -24159.419436385568, -187500.02235174447, -187500.02235174447, 0.644, 0.09, 0.758, 192.0, 0.0, 0.0, 0.0, 0.0, 0.0, 0.0, 0.0, 0.0, 0.0, 1.7161968941034627E9, 0.0, 2024-05-20 12:21:34.103
55.0, 5560.287005935551, -137435.78045794732, -110035.96157264253, -35305.765009613635, -89113.20884385215, -24157.318372406768, -187500.02235174447, -187500.02235174447, 0.644, 0.09, 0.758, 192.0, 0.0, 0.0, 0.0, 0.0, 0.0, 0.0, 0.0, 0.0, 0.0, 1.716196894107476E9, 0.0, 2024-05-20 12:21:34.107
56.0, 5722.851243358999, -137491.5927638522, -110130.48709994402, -35289.582346628, -89158.51582986306, -24157.184261940034, -187500.02235174447, -187500.02235174447, 0.644, 0.09, 0.758, 192.0, 0.0, 0.0, 0.0, 0.0, 0.0, 0.0, 0.0, 0.0, 0.0, 1.7161968941105025E9, 0.0, 2024-05-20 12:21:34.110
57.0, 5506.620467498358, -137651.2959779854, -110329.70819827417, -35377.31294361508, -89309.12188400292, -24259.51054805643, -187500.02235174447, -187500.02235174447, 0.644, 0.09, 0.758, 192.0, 0.0, 0.0, 0.0, 0.0, 0.0, 0.0, 0.0, 0.0, 0.0, 1.716196894114503E9, 0.0, 2024-05-20 12:21:34.114
58.0, 5081.95967459198, -137814.35195378686, -110534.27136352914, -35468.12808133699, -89466.366406246, -24365.368409796767, -187500.02235174447, -187500.02235174447, 0.644, 0.09, 0.758, 192.0, 0.0, 0.0, 0.0, 0.0, 0.0, 0.0, 0.0, 0.0, 0.0, 1.7161968941185672E9, 0.0, 2024-05-20 12:21:34.118
59.0, 5173.221847202998, -137945.91432165078, -110707.76560399123, -35527.06963146563, -89591.08914030662, -24441.45374792263, -187500.02235174447, -187500.02235174447, 0.644, 0.09, 0.758, 192.0, 0.0, 0.0, 0.0, 0.0, 0.0, 0.0, 0.0, 0.0, 0.0, 1.7161968941226509E9, 0.0, 2024-05-20 12:21:34.122
60.0, 5742.118447079474, -137974.18927838677, -110775.91607283546, -35484.48955827827, -89611.18335857194, -24415.16809644319, -187500.02235174447, -187500.02235174447, 0.644, 0.09, 0.758, 192.0, 0.0, 0.0, 0.0, 0.0, 0.0, 0.0, 0.0, 0.0, 0.0, 1.7161968941265717E9, 0.0, 2024-05-20 12:21:34.126
61.0, 5700.901830303887, -138055.50492471518, -110897.2189899944, -35496.492445050775, -89685.79348156376, -24442.88425956777, -187500.02235174447, -187500.02235174447, 0.644, 0.09, 0.758, 192.0, 0.0, 0.0, 0.0, 0.0, 0.0, 0.0, 0.0, 0.0, 0.0, 1.7161968941305664E9, 0.0, 2024-05-20 12:21:34.130
62.0, 5663.373251363427, -138222.15953137394, -111105.20197215104, -35593.07433284215, -89846.54722768631, -24556.498176634097, -187500.02235174447, -187500.02235174447, 0.644, 0.09, 0.758, 192.0, 0.0, 0.0, 0.0, 0.0, 0.0, 0.0, 0.0, 0.0, 0.0, 1.7161968941355724E9, 0.0, 2024-05-20 12:21:34.135
63.0, 5495.645760970803, -138373.83846924765, -111297.13640178877, -35671.21603145791, -89991.31947652335, -24653.79532024805, -187500.02235174447, -187500.02235174447, 0.644, 0.088, 0.758, 192.0, 20.0, 32.0, 2.0, 192.0, 23.0, 176.0, 0.0, 0.0, 0.0, 1.7161968941386013E9, 0.0, 2024-05-20 12:21:34.138
64.0, 5313.121415748766, -138506.80899701227, -111471.43530505126, -35732.39275603208, -90119.39497225225, -24734.37335900943, -187500.02235174447, -187500.02235174447, 0.644, 0.088, 0.758, 192.0, 0.0, 0.0, 0.0, 0.0, 0.0, 0.0, 0.0, 0.0, 0.0, 1.7161968941436346E9, 0.0, 2024-05-20 12:21:34.143
65.0, 5386.792765473458, -138583.2072595605, -111590.34658555349, -35737.399546790075, -90189.24417367509, -24759.295554077096, -187500.02235174447, -187500.02235174447, 0.644, 0.088, 0.758, 192.0, 0.0, 0.0, 0.0, 0.0, 0.0, 0.0, 0.0, 0.0, 0.0, 1.7161968941469018E9, 0.0, 2024-05-20 12:21:34.146
66.0, 5523.764255495579, -138656.94566451857, -111706.08391834307, -35739.45590727996, -90256.54527623001, -24782.13903691042, -187500.02235174447, -187500.02235174447, 0.644, 0.088, 0.758, 192.0, 0.0, 0.0, 0.0, 0.0, 0.0, 0.0, 0.0, 0.0, 0.0, 1.7161968941506877E9, 0.0, 2024-05-20 12:21:34.150
67.0, 5250.067144640344, -138801.29323021093, -111894.44206886794, -35815.11656226117, -90394.99198138619, -24874.094113599553, -187500.02235174447, -187500.02235174447, 0.644, 0.088, 0.758, 192.0, 0.0, 0.0, 0.0, 0.0, 0.0, 0.0, 0.0, 0.0, 0.0, 1.7161968941566715E9, 0.0, 2024-05-20 12:21:34.156
68.0, 5270.161362905666, -138955.4532117192, -112093.01496660888, -35899.807322002336, -90544.88277970348, -24975.816902615657, -187500.02235174447, -187500.02235174447, 0.644, 0.088, 0.758, 192.0, 0.0, 0.0, 0.0, 0.0, 0.0, 0.0, 0.0, 0.0, 0.0, 1.7161968941606617E9, 0.0, 2024-05-20 12:21:34.160
69.0, 5697.571420380047, -139057.15364899085, -112237.988381146, -35930.45156365056, -90642.71636518436, -25026.264789851284, -187500.02235174447, -187500.02235174447, 0.644, 0.088, 0.758, 192.0, 0.0, 0.0, 0.0, 0.0, 0.0, 0.0, 0.0, 0.0, 0.0, 1.7161968941637053E9, 0.0, 2024-05-20 12:21:34.163
70.0, 5681.83579228351, -139110.03787637208, -112333.69855090363, -35913.15131344215, -90690.12441517407, -25027.270618351773, -187500.02235174447, -187500.02235174447, 0.644, 0.088, 0.758, 192.0, 0.0, 0.0, 0.0, 0.0, 0.0, 0.0, 0.0, 0.0, 0.0, 1.7161968941666474E9, 0.0, 2024-05-20 12:21:34.166
71.0, 5506.329894820439, -139222.37774400448, -112490.51839000206, -35957.16189827465, -90797.681009493, -25086.525092902793, -187500.02235174447, -187500.02235174447, 0.644, 0.088, 0.758, 192.0, 0.0, 0.0, 0.0, 0.0, 0.0, 0.0, 0.0, 0.0, 0.0, 1.7161968941706808E9, 0.0, 2024-05-20 12:21:34.170
72.0, 5187.281094465387, -139372.1567835995, -112686.58789236403, -36038.768117280975, -90945.9624822095, -25185.7444865399, -187500.02235174447, -187500.02235174447, 0.644, 0.088, 0.758, 192.0, 0.0, 0.0, 0.0, 0.0, 0.0, 0.0, 0.0, 0.0, 0.0, 1.7161968941747103E9, 0.0, 2024-05-20 12:21:34.174
73.0, 5127.668992003083, -139512.12340737862, -112872.73322018782, -36108.01382160352, -91084.38683562122, -25274.52561551638, -187500.02235174447, -187500.02235174447, 0.648, 0.088, 0.758, 192.0, 20.0, 64.0, 2.0, 192.0, 23.0, 176.0, 0.0, 0.0, 0.0, 1.7161968941787367E9, 0.0, 2024-05-20 12:21:34.178
74.0, 5358.294291292941, -139589.68396063853, -112996.53953272576, -36115.47930425159, -91158.1699440682, -25302.800572252345, -187500.02235174447, -187500.02235174447, 0.648, 0.088, 0.758, 192.0, 0.0, 0.0, 0.0, 0.0, 0.0, 0.0, 0.0, 0.0, 0.0, 1.716196894182862E9, 0.0, 2024-05-20 12:21:34.182
75.0, 5411.312629140929, -139713.1773487541, -113166.8598254752, -36170.17402293373, -91282.0433118395, -25378.193006300095, -187500.02235174447, -187500.02235174447, 0.648, 0.088, 0.758, 192.0, 0.0, 0.0, 0.0, 0.0, 0.0, 0.0, 0.0, 0.0, 0.0, 1.7161968941897655E9, 0.0, 2024-05-20 12:21:34.189
76.0, 5653.605539036458, -139786.0440356784, -113285.54758853288, -36176.09723521438, -91354.39590864134, -25403.60693974578, -187500.02235174447, -187500.02235174447, 0.648, 0.088, 0.758, 192.0, 0.0, 0.0, 0.0, 0.0, 0.0, 0.0, 0.0, 0.0, 0.0, 1.716196894192799E9, 0.0, 2024-05-20 12:21:34.192
77.0, 5691.335283677016, -139888.0126938835, -113431.92916297069, -36210.13894201982, -91452.54241854459, -25456.021780493473, -187500.02235174447, -187500.02235174447, 0.648, 0.088, 0.758, 192.0, 0.0, 0.0, 0.0, 0.0, 0.0, 0.0, 0.0, 0.0, 0.0, 1.7161968941968071E9, 0.0, 2024-05-20 12:21:34.196
78.0, 5518.33278159294, -140065.88787625884, -113656.69830521326, -36318.90253053934, -91626.75191482925, -25584.276090178024, -187500.02235174447, -187500.02235174447, 0.648, 0.088, 0.758, 192.0, 0.0, 0.0, 0.0, 0.0, 0.0, 0.0, 0.0, 0.0, 0.0, 1.7161968941998334E9, 0.0, 2024-05-20 12:21:34.199
79.0, 5693.950437778287, -140195.9973807332, -113835.57931608908, -36380.92862140282, -91756.7049570924, -25665.27881208406, -187500.02235174447, -187500.02235174447, 0.648, 0.088, 0.758, 192.0, 0.0, 0.0, 0.0, 0.0, 0.0, 0.0, 0.0, 0.0, 0.0, 1.7161968942027974E9, 0.0, 2024-05-20 12:21:34.202
80.0, 5750.299185550116, -140267.2547420567, -113954.91527973597, -36383.208499337255, -91827.51528352682, -25686.781190250065, -187500.02235174447, -187500.02235174447, 0.648, 0.088, 0.758, 192.0, 0.0, 0.0, 0.0, 0.0, 0.0, 0.0, 0.0, 0.0, 0.0, 1.7161968942068152E9, 0.0, 2024-05-20 12:21:34.206
81.0, 5659.998137950675, -140359.7239088683, -114097.184133194, -36409.51650256116, -91918.95627009348, -25730.456498915733, -187500.02235174447, -187500.02235174447, 0.648, 0.088, 0.758, 192.0, 0.0, 0.0, 0.0, 0.0, 0.0, 0.0, 0.0, 0.0, 0.0, 1.7161968942108395E9, 0.0, 2024-05-20 12:21:34.210
82.0, 5617.73098918569, -140480.87036381607, -114267.34796373225, -36465.64173288843, -92039.61098666323, -25802.09383989499, -187500.02235174447, -187500.02235174447, 0.644, 0.088, 0.76, 192.0, 20.0, 32.0, 2.0, 192.0, 23.0, 192.0, 0.0, 0.0, 0.0, 1.7161968942148385E9, 0.0, 2024-05-20 12:21:34.214
83.0, 5628.482178268692, -140603.8496618092, -114439.67991348266, -36521.632852748975, -92161.80797360039, -25875.07228554157, -187500.02235174447, -187500.02235174447, 0.644, 0.088, 0.76, 192.0, 0.0, 0.0, 0.0, 0.0, 0.0, 0.0, 0.0, 0.0, 0.0, 1.7161968942188623E9, 0.0, 2024-05-20 12:21:34.218
84.0, 5682.752213806179, -140752.39935545914, -114638.87866006837, -36603.0379060552, -92308.97185909413, -25973.57642335611, -187500.02235174447, -187500.02235174447, 0.644, 0.088, 0.76, 192.0, 0.0, 0.0, 0.0, 0.0, 0.0, 0.0, 0.0, 0.0, 0.0, 1.7161968942228963E9, 0.0, 2024-05-20 12:21:34.222
85.0, 5737.491635977225, -140873.6575691292, -114812.86463890848, -36658.82786021565, -92432.10761929842, -26047.96302890337, -187500.02235174447, -187500.02235174447, 0.644, 0.088, 0.76, 192.0, 0.0, 0.0, 0.0, 0.0, 0.0, 0.0, 0.0, 0.0, 0.0, 1.7161968942259114E9, 0.0, 2024-05-20 12:21:34.225
86.0, 5791.314636625604, -140985.99743676157, -114978.80398974467, -36705.632413105064, -92547.19675149879, -26113.900675046527, -187500.02235174447, -187500.02235174447, 0.644, 0.088, 0.76, 192.0, 0.0, 0.0, 0.0, 0.0, 0.0, 0.0, 0.0, 0.0, 0.0, 1.7161968942299793E9, 0.0, 2024-05-20 12:21:34.229
87.0, 5725.868728860465, -141131.4625896767, -115176.84044561868, -36785.80812046625, -92694.8300236261, -26210.77313551583, -187500.02235174447, -187500.02235174447, 0.644, 0.088, 0.76, 192.0, 0.0, 0.0, 0.0, 0.0, 0.0, 0.0, 0.0, 0.0, 0.0, 1.7161968942359369E9, 0.0, 2024-05-20 12:21:34.235
88.0, 5699.337208192016, -141275.63134141342, -115372.23939564699, -36863.88276384864, -92839.5128654853, -26304.69516571703, -187500.02235174447, -187500.02235174447, 0.644, 0.088, 0.76, 192.0, 0.0, 0.0, 0.0, 0.0, 0.0, 0.0, 0.0, 0.0, 0.0, 1.7161968942389493E9, 0.0, 2024-05-20 12:21:34.238
89.0, 5627.453998023749, -141407.99837207777, -115559.25644150453, -36930.2674448809, -92973.17629732804, -26388.22363474651, -187500.02235174447, -187500.02235174447, 0.644, 0.088, 0.76, 192.0, 0.0, 0.0, 0.0, 0.0, 0.0, 0.0, 0.0, 0.0, 0.0, 1.7161968942429569E9, 0.0, 2024-05-20 12:21:34.242
90.0, 5624.168291588819, -141507.7989110707, -115714.89163814684, -36963.54919237485, -93072.68626364306, -26440.459661538564, -187500.02235174447, -187500.02235174447, 0.644, 0.088, 0.76, 192.0, 0.0, 0.0, 0.0, 0.0, 0.0, 0.0, 0.0, 0.0, 0.0, 1.7161968942459805E9, 0.0, 2024-05-20 12:21:34.245
91.0, 5740.352659267504, -141609.40994136452, -115871.75618073418, -36998.2838032584, -93173.40322415868, -26494.170903464666, -187500.02235174447, -187500.02235174447, 0.644, 0.088, 0.76, 192.0, 0.0, 0.0, 0.0, 0.0, 0.0, 0.0, 0.0, 0.0, 0.0, 1.71619689424997E9, 0.0, 2024-05-20 12:21:34.249
92.0, 5633.108989370941, -141723.85087297572, -116042.29999092818, -37047.1447166377, -93287.77710053648, -26562.120206608797, -187500.02235174447, -187500.02235174447, 0.648, 0.09, 0.758, 192.0, 20.0, 64.0, 2.0, 208.0, 23.0, 176.0, 0.0, 0.0, 0.0, 1.7161968942570417E9, 0.0, 2024-05-20 12:21:34.257
93.0, 5703.405225682882, -141847.09839190225, -116223.1256035716, -37107.1591505002, -93409.549404329, -26637.51264065655, -187500.02235174447, -187500.02235174447, 0.648, 0.09, 0.758, 192.0, 0.0, 0.0, 0.0, 0.0, 0.0, 0.0, 0.0, 0.0, 0.0, 1.7161968942600567E9, 0.0, 2024-05-20 12:21:34.260
94.0, 5792.923962226387, -142009.8637950258, -116443.9384870456, -37205.193901681174, -93573.36533944194, -26751.73005482317, -187500.02235174447, -187500.02235174447, 0.648, 0.09, 0.758, 192.0, 0.0, 0.0, 0.0, 0.0, 0.0, 0.0, 0.0, 0.0, 0.0, 1.716196894264047E9, 0.0, 2024-05-20 12:21:34.264
95.0, 5764.939578168342, -142104.2999153495, -116594.47748595208, -37233.17828573922, -93668.5614190771, -26797.931110612288, -187500.02235174447, -187500.02235174447, 0.648, 0.09, 0.758, 192.0, 0.0, 0.0, 0.0, 0.0, 0.0, 0.0, 0.0, 0.0, 0.0, 1.7161968942680895E9, 0.0, 2024-05-20 12:21:34.268
96.0, 5639.9709749187205, -142218.38321904937, -116765.44597929073, -37284.52024275306, -93784.87989722252, -26863.868756755444, -187500.02235174447, -187500.02235174447, 0.648, 0.09, 0.758, 192.0, 0.0, 0.0, 0.0, 0.0, 0.0, 0.0, 0.0, 0.0, 0.0, 1.716196894271084E9, 0.0, 2024-05-20 12:21:34.271
97.0, 5549.312299407995, -142341.6977932093, -116947.32212392356, -37344.37821440437, -93910.7649219948, -26940.42348151487, -187500.02235174447, -187500.02235174447, 0.648, 0.09, 0.758, 192.0, 0.0, 0.0, 0.0, 0.0, 0.0, 0.0, 0.0, 0.0, 0.0, 1.716196894275113E9, 0.0, 2024-05-20 12:21:34.275
98.0, 5782.910380710409, -142489.5322310367, -117154.56749851318, -37428.778401467614, -94061.63919706813, -27041.676883897413, -187500.02235174447, -187500.02235174447, 0.648, 0.09, 0.758, 192.0, 0.0, 0.0, 0.0, 0.0, 0.0, 0.0, 0.0, 0.0, 0.0, 1.7161968942780852E9, 0.0, 2024-05-20 12:21:34.278
99.0, 5810.470081623803, -142682.6289513861, -117410.40556554862, -37557.52444953018, -94259.74270817552, -27188.10316182413, -187500.02235174447, -187500.02235174447, 0.648, 0.09, 0.758, 192.0, 0.0, 0.0, 0.0, 0.0, 0.0, 0.0, 0.0, 0.0, 0.0, 1.7161968942823203E9, 0.0, 2024-05-20 12:21:34.282
100.0, 5713.687028132324, -142778.11560369917, -117565.41491334618, -37587.63224931148, -94356.30224422243, -27233.96894144642, -187500.02235174447, -187500.02235174447, 0.648, 0.09, 0.758, 192.0, 0.0, 0.0, 0.0, 0.0, 0.0, 0.0, 0.0, 0.0, 0.0, 1.7161968942862086E9, 0.0, 2024-05-20 12:21:34.286
101.0, 5639.747457474167, -142865.6673867306, -117712.35528139536, -37609.40284841095, -94445.08337319891, -27272.6374593541, -187500.02235174447, -187500.02235174447, 0.648, 0.09, 0.758, 192.0, 0.0, 0.0, 0.0, 0.0, 0.0, 0.0, 0.0, 0.0, 0.0, 1.716196894292232E9, 0.0, 2024-05-20 12:21:34.292
102.0, 5713.374103709949, -142983.77400443246, -117888.26351025862, -37661.10243333608, -94566.14042116886, -27342.821936943765, -187500.02235174447, -187500.02235174447, 0.65, 0.08600000000000001, 0.764, 192.0, 20.0, 80.0, 2.0, 176.0, 23.0, 224.0, 0.0, 0.0, 0.0, 1.7161968942952197E9, 0.0, 2024-05-20 12:21:34.295
103.0, 5767.822953203077, -143163.57143683094, -118127.87421081951, -37775.90099285853, -94748.53065592417, -27472.730275718008, -187500.02235174447, -187500.02235174447, 0.65, 0.08600000000000001, 0.764, 192.0, 0.0, 0.0, 0.0, 0.0, 0.0, 0.0, 0.0, 0.0, 0.0, 1.716196894298324E9, 0.0, 2024-05-20 12:21:34.298
104.0, 5732.104865563496, -143315.071560749, -118341.06514943423, -37863.475127634425, -94902.93650662142, -27575.324782767868, -187500.02235174447, -187500.02235174447, 0.65, 0.08600000000000001, 0.764, 192.0, 0.0, 0.0, 0.0, 0.0, 0.0, 0.0, 0.0, 0.0, 0.0, 1.7161968943032403E9, 0.0, 2024-05-20 12:21:34.303
105.0, 5751.953214639809, -143380.20454409177, -118468.62655504067, -37865.50913637986, -94969.29883590924, -27593.27323356548, -187500.02235174447, -187500.02235174447, 0.65, 0.08600000000000001, 0.764, 192.0, 0.0, 0.0, 0.0, 0.0, 0.0, 0.0, 0.0, 0.0, 0.0, 1.716196894307207E9, 0.0, 2024-05-20 12:21:34.307
106.0, 5736.821083643566, -143484.25191453123, -118636.1975832221, -37906.70340141099, -95074.2402761269, -27648.57144934791, -187500.02235174447, -187500.02235174447, 0.65, 0.08600000000000001, 0.764, 192.0, 0.0, 0.0, 0.0, 0.0, 0.0, 0.0, 0.0, 0.0, 0.0, 1.7161968943102727E9, 0.0, 2024-05-20 12:21:34.310
107.0, 5663.105030429963, -143627.5042447453, -118843.64412351181, -37987.8178820393, -95219.88424299768, -27744.035749916526, -187500.02235174447, -187500.02235174447, 0.65, 0.08600000000000001, 0.764, 192.0, 0.0, 0.0, 0.0, 0.0, 0.0, 0.0, 0.0, 0.0, 0.0, 1.7161968943202374E9, 0.0, 2024-05-20 12:21:34.320
108.0, 5624.548271244558, -143765.95094990145, -119045.83800385451, -38062.53976375339, -95362.46602087808, -27835.588495205462, -187500.02235174447, -187500.02235174447, 0.65, 0.08600000000000001, 0.764, 192.0, 0.0, 0.0, 0.0, 0.0, 0.0, 0.0, 0.0, 0.0, 0.0, 1.7161968943242745E9, 0.0, 2024-05-20 12:21:34.324
109.0, 5655.1701611483295, -143937.83586476278, -119284.7558003373, -38170.521041216976, -95542.01758408757, -27961.048836833103, -187500.02235174447, -187500.02235174447, 0.65, 0.08600000000000001, 0.764, 192.0, 0.0, 0.0, 0.0, 0.0, 0.0, 0.0, 0.0, 0.0, 0.0, 1.7161968943273103E9, 0.0, 2024-05-20 12:21:34.327
110.0, 5676.158449191863, -144033.07664788683, -119445.68836041552, -38202.461684043614, -95640.90170155784, -28007.272244366675, -187500.02235174447, -187500.02235174447, 0.65, 0.08600000000000001, 0.764, 192.0, 0.0, 0.0, 0.0, 0.0, 0.0, 0.0, 0.0, 0.0, 0.0, 1.716196894331442E9, 0.0, 2024-05-20 12:21:34.331
111.0, 5653.605539036458, -144138.71099218263, -119616.63450200969, -38244.415908386225, -95748.41359238788, -28064.202137494343, -187500.02235174447, -187500.02235174447, 0.65, 0.08600000000000001, 0.764, 192.0, 0.0, 0.0, 0.0, 0.0, 0.0, 0.0, 0.0, 0.0, 0.0, 1.71619689433432E9, 0.0, 2024-05-20 12:21:34.334
112.0, 5605.593991946458, -144291.03813064555, -119834.9886935936, -38334.69460424121, -95903.75821635226, -28168.361266656077, -187500.02235174447, -187500.02235174447, 0.646, 0.09, 0.75, 192.0, 20.0, 48.0, 2.0, 208.0, 23.0, 112.0, 0.0, 0.0, 0.0, 1.7161968943373318E9, 0.0, 2024-05-20 12:21:34.337
113.0, 5614.44528275076, -144462.2524931732, -120074.06295228755, -38442.49706774915, -96078.77237543731, -28292.033468727288, -187500.02235174447, -187500.02235174447, 0.646, 0.09, 0.75, 192.0, 0.0, 0.0, 0.0, 0.0, 0.0, 0.0, 0.0, 0.0, 0.0, 1.716196894341332E9, 0.0, 2024-05-20 12:21:34.341
114.0, 5666.904826987366, -144601.2803436852, -120283.9458327229, -38519.61058611996, -96222.80701670732, -28385.41905706156, -187500.02235174447, -187500.02235174447, 0.646, 0.09, 0.75, 192.0, 0.0, 0.0, 0.0, 0.0, 0.0, 0.0, 0.0, 0.0, 0.0, 1.7161968943454096E9, 0.0, 2024-05-20 12:21:34.345
115.0, 5764.358432812504, -144743.95152854343, -120496.82384691524, -38601.88735745995, -96371.6919865241, -28481.553909963837, -187500.02235174447, -187500.02235174447, 0.646, 0.09, 0.75, 192.0, 0.0, 0.0, 0.0, 0.0, 0.0, 0.0, 0.0, 0.0, 0.0, 1.7161968943483644E9, 0.0, 2024-05-20 12:21:34.348
116.0, 5747.773438426667, -144854.3020909193, -120676.64363105818, -38651.44117491737, -96488.18927862517, -28544.161146183153, -187500.02235174447, -187500.02235174447, 0.646, 0.09, 0.75, 192.0, 0.0, 0.0, 0.0, 0.0, 0.0, 0.0, 0.0, 0.0, 0.0, 1.7161968943534017E9, 0.0, 2024-05-20 12:21:34.353
117.0, 5651.817399480034, -144958.14829565864, -120848.93087731968, -38694.624745205016, -96596.68464621123, -28600.532245699436, -187500.02235174447, -187500.02235174447, 0.646, 0.09, 0.75, 192.0, 0.0, 0.0, 0.0, 0.0, 0.0, 0.0, 0.0, 0.0, 0.0, 1.716196894357404E9, 0.0, 2024-05-20 12:21:34.357
118.0, 5651.280957613106, -145140.65028913622, -121103.85252283246, -38818.02872634277, -96786.67447408134, -28739.5824479559, -187500.02235174447, -187500.02235174447, 0.646, 0.09, 0.75, 192.0, 0.0, 0.0, 0.0, 0.0, 0.0, 0.0, 0.0, 0.0, 0.0, 1.7161968943604133E9, 0.0, 2024-05-20 12:21:34.360
119.0, 5698.152565735885, -145323.48755878062, -121359.62353463455, -38940.069251068744, -96976.19491531789, -28877.53741473406, -187500.02235174447, -187500.02235174447, 0.646, 0.09, 0.75, 192.0, 0.0, 0.0, 0.0, 0.0, 0.0, 0.0, 0.0, 0.0, 0.0, 1.7161968943634083E9, 0.0, 2024-05-20 12:21:34.363
120.0, 5746.253519803706, -145446.3774497959, -121552.85436545068, -39002.05063844331, -97105.7232744364, -28953.421587159824, -187500.02235174447, -187500.02235174447, 0.646, 0.09, 0.75, 192.0, 0.0, 0.0, 0.0, 0.0, 0.0, 0.0, 0.0, 0.0, 0.0, 1.7161968943664165E9, 0.0, 2024-05-20 12:21:34.366
121.0, 5737.156359810396, -145563.52294248616, -121742.93360029861, -39061.03689206087, -97231.13891257512, -29024.008396149686, -187500.02235174447, -187500.02235174447, 0.646, 0.09, 0.75, 192.0, 0.0, 0.0, 0.0, 0.0, 0.0, 0.0, 0.0, 0.0, 0.0, 1.716196894370442E9, 0.0, 2024-05-20 12:21:34.370
122.0, 5670.50345784467, -145737.53127307072, -121990.76974281904, -39174.67316087164, -97412.07628394083, -29148.798185443662, -187500.02235174447, -187500.02235174447, 0.636, 0.098, 0.752, 192.0, 19.0, 224.0, 3.0, 16.0, 23.0, 128.0, 0.0, 0.0, 0.0, 1.716196894374466E9, 0.0, 2024-05-20 12:21:34.374
123.0, 5575.173267742785, -145890.5960191007, -122217.77405950715, -39265.6671125492, -97570.37133817331, -29250.766843648773, -187500.02235174447, -187500.02235174447, 0.636, 0.098, 0.752, 192.0, 0.0, 0.0, 0.0, 0.0, 0.0, 0.0, 0.0, 0.0, 0.0, 1.7161968943785677E9, 0.0, 2024-05-20 12:21:34.378
124.0, 5534.2472236451185, -146048.66755588862, -122449.47224253086, -39361.73491021811, -97733.22614827468, -29358.926935068004, -187500.02235174447, -187500.02235174447, 0.636, 0.098, 0.752, 192.0, 0.0, 0.0, 0.0, 0.0, 0.0, 0.0, 0.0, 0.0, 0.0, 1.716196894382496E9, 0.0, 2024-05-20 12:21:34.382
125.0, 5524.635973529336, -146185.23671451054, -122661.702056134, -39436.993233799134, -97875.42794649935, -29447.283380899833, -187500.02235174447, -187500.02235174447, 0.636, 0.098, 0.752, 192.0, 0.0, 0.0, 0.0, 0.0, 0.0, 0.0, 0.0, 0.0, 0.0, 1.716196894387526E9, 0.0, 2024-05-20 12:21:34.387
126.0, 5554.453200632715, -146279.024634245, -122829.51895350445, -39471.52667898258, -97974.93791281438, -29492.83623609975, -187500.02235174447, -187500.02235174447, 0.636, 0.098, 0.752, 192.0, 0.0, 0.0, 0.0, 0.0, 0.0, 0.0, 0.0, 0.0, 0.0, 1.7161968943905215E9, 0.0, 2024-05-20 12:21:34.390
127.0, 5565.629072860369, -146414.43150215526, -123040.295903718, -39547.88023804191, -98117.22911801685, -29579.940984242083, -187500.02235174447, -187500.02235174447, 0.636, 0.098, 0.752, 192.0, 0.0, 0.0, 0.0, 0.0, 0.0, 0.0, 0.0, 0.0, 0.0, 1.7161968943955572E9, 0.0, 2024-05-20 12:21:34.395
128.0, 5524.792435740524, -146620.87221394447, -123323.09017456653, -39693.770074101696, -98330.93414675405, -29736.000864029036, -187500.02235174447, -187500.02235174447, 0.636, 0.098, 0.752, 192.0, 0.0, 0.0, 0.0, 0.0, 0.0, 0.0, 0.0, 0.0, 0.0, 1.7161968943985465E9, 0.0, 2024-05-20 12:21:34.398
129.0, 5526.848796230412, -146814.52772790525, -123594.3732970206, -39826.248863488305, -98532.54688174093, -29879.409656454285, -187500.02235174447, -187500.02235174447, 0.636, 0.098, 0.752, 192.0, 0.0, 0.0, 0.0, 0.0, 0.0, 0.0, 0.0, 0.0, 0.0, 1.7161968944025698E9, 0.0, 2024-05-20 12:21:34.402
130.0, 5480.647740441292, -146940.21158697744, -123797.28243318587, -39890.979515430874, -98664.31041530495, -29954.93620096877, -187500.02235174447, -187500.02235174447, 0.636, 0.098, 0.752, 192.0, 0.0, 0.0, 0.0, 0.0, 0.0, 0.0, 0.0, 0.0, 0.0, 1.7161968944085932E9, 0.0, 2024-05-20 12:21:34.408
131.0, 5347.0066603430105, -147050.83037028677, -123987.18285407817, -39942.58969337818, -98781.27709403957, -30015.151800531366, -187500.02235174447, -187500.02235174447, 0.642, 0.08600000000000001, 0.744, 192.0, 20.0, 16.0, 2.0, 176.0, 23.0, 64.0, 0.0, 0.0, 0.0, 1.7161968944116373E9, 0.0, 2024-05-20 12:21:34.411
132.0, 5141.527073565373, -147159.0798686838, -124172.25529816811, -39990.53418523481, -98894.75690063917, -30073.355743092987, -187500.02235174447, -187500.02235174447, 0.642, 0.08600000000000001, 0.744, 192.0, 0.0, 0.0, 0.0, 0.0, 0.0, 0.0, 0.0, 0.0, 0.0, 1.7161968944146304E9, 0.0, 2024-05-20 12:21:34.414
133.0, 4907.683123073951, -147323.0746177524, -124414.03411794116, -40093.307506240315, -99064.87602768852, -30186.96966015931, -187500.02235174447, -187500.02235174447, 0.642, 0.08600000000000001, 0.744, 192.0, 0.0, 0.0, 0.0, 0.0, 0.0, 0.0, 0.0, 0.0, 0.0, 1.7161968944206088E9, 0.0, 2024-05-20 12:21:34.420
134.0, 4620.239689378702, -147519.814672448, -124688.62529857461, -40226.52390319394, -99267.40518419805, -30331.00430142931, -187500.02235174447, -187500.02235174447, 0.642, 0.08600000000000001, 0.744, 192.0, 0.0, 0.0, 0.0, 0.0, 0.0, 0.0, 0.0, 0.0, 0.0, 1.7161968944246285E9, 0.0, 2024-05-20 12:21:34.424
135.0, 4721.940126650349, -147683.04946220512, -124930.51587706995, -40327.844360809846, -99437.1219798472, -30442.338340561193, -187500.02235174447, -187500.02235174447, 0.642, 0.08600000000000001, 0.744, 192.0, 0.0, 0.0, 0.0, 0.0, 0.0, 0.0, 0.0, 0.0, 0.0, 1.71619689442771E9, 0.0, 2024-05-20 12:21:34.427
136.0, 5003.862679465137, -147787.6332745115, -125113.93429207019, -40372.25727704255, -99546.93610035612, -30497.70361157699, -187500.02235174447, -187500.02235174447, 0.642, 0.08600000000000001, 0.744, 192.0, 0.0, 0.0, 0.0, 0.0, 0.0, 0.0, 0.0, 0.0, 0.0, 1.7161968944306707E9, 0.0, 2024-05-20 12:21:34.430
137.0, 5167.9691872560015, -147930.52797681428, -125336.37885288941, -40455.00343501609, -99696.80454692895, -30591.6703452671, -187500.02235174447, -187500.02235174447, 0.642, 0.08600000000000001, 0.744, 192.0, 0.0, 0.0, 0.0, 0.0, 0.0, 0.0, 0.0, 0.0, 0.0, 1.7161968944347255E9, 0.0, 2024-05-20 12:21:34.434
138.0, 5185.470603164506, -148097.24963870642, -125583.7903122652, -40561.95653223473, -99870.43289785778, -30709.37463156875, -187500.02235174447, -187500.02235174447, 0.642, 0.08600000000000001, 0.744, 192.0, 0.0, 0.0, 0.0, 0.0, 0.0, 0.0, 0.0, 0.0, 0.0, 1.7161968944377167E9, 0.0, 2024-05-20 12:21:34.437
139.0, 5275.101098430288, -148262.92076860915, -125831.49234431892, -40668.46259456428, -100044.10595227551, -30825.648406225257, -187500.02235174447, -187500.02235174447, 0.642, 0.08600000000000001, 0.744, 192.0, 0.0, 0.0, 0.0, 0.0, 0.0, 0.0, 0.0, 0.0, 0.0, 1.7161968944418092E9, 0.0, 2024-05-20 12:21:34.441
140.0, 5594.172250529797, -148356.6639848547, -126007.31116620437, -40702.16902520288, -100144.21941569084, -30869.837805013398, -187500.02235174447, -187500.02235174447, 0.642, 0.08600000000000001, 0.744, 192.0, 0.0, 0.0, 0.0, 0.0, 0.0, 0.0, 0.0, 0.0, 0.0, 1.7161968944457452E9, 0.0, 2024-05-20 12:21:34.445
141.0, 5691.335283677016, -148475.4411548902, -126208.61097676886, -40761.714072431816, -100270.86439977461, -30941.341035525926, -187500.02235174447, -187500.02235174447, 0.644, 0.1, 0.754, 192.0, 20.0, 32.0, 3.0, 32.0, 23.0, 144.0, 0.0, 0.0, 0.0, 1.716196894449813E9, 0.0, 2024-05-20 12:21:34.449
142.0, 5711.2283362422395, -148625.24254622968, -126440.8008981706, -40852.66332062046, -100426.52194816136, -31041.745071619163, -187500.02235174447, -187500.02235174447, 0.644, 0.1, 0.754, 192.0, 0.0, 0.0, 0.0, 0.0, 0.0, 0.0, 0.0, 0.0, 0.0, 1.7161968944547822E9, 0.0, 2024-05-20 12:21:34.454
143.0, 5755.261272819194, -148812.3713508095, -126709.84884617911, -40978.01190352582, -100616.86940394276, -31177.35310522951, -187500.02235174447, -187500.02235174447, 0.644, 0.1, 0.754, 192.0, 0.0, 0.0, 0.0, 0.0, 0.0, 0.0, 0.0, 0.0, 0.0, 1.716196894458841E9, 0.0, 2024-05-20 12:21:34.458
144.0, 5689.07775748703, -148970.82286725318, -126948.6101804507, -41071.77747151583, -100780.10419369987, -31283.501539647765, -187500.02235174447, -187500.02235174447, 0.644, 0.1, 0.754, 192.0, 0.0, 0.0, 0.0, 0.0, 0.0, 0.0, 0.0, 0.0, 0.0, 1.7161968944627924E9, 0.0, 2024-05-20 12:21:34.462
